# len - length of homopolymer
# flow - flow index
# mean - mean intensity value
# sd - sample standard deviation of intensity value
len	flow	mean	sd
1	7	104.382	11.8575
1	8	96.324	9.79309
1	9	95.6234	9.08506
1	10	93.2902	8.69407
1	11	99.1171	10.355
1	12	97.312	10.0624
1	13	99.2103	9.48663
1	14	94.3978	9.03035
1	15	95.7834	9.99079
1	16	96.3289	9.72475
1	17	92.1242	9.08219
1	18	98.8193	10.975
1	19	95.7605	11.0717
1	20	96.6973	10.8737
1	21	95.9886	9.64982
1	22	100.361	12.3142
1	23	97.1968	12.4532
1	24	96.6091	11.1935
1	25	99.9606	10.9318
1	26	95.8654	10.8012
1	27	97.3227	13.3899
1	28	96.3646	9.61319
1	29	96.184	11.8468
1	30	100.535	10.8173
1	31	95.4682	9.21497
1	32	98.2153	10.834
1	33	97.8319	11.9752
1	34	94.6368	9.36446
1	35	100.901	11.0343
1	36	96.8914	11.3059
1	37	97.4521	11.8263
1	38	95.0825	9.56104
1	39	100.264	11.269
1	40	96.754	10.7908
1	41	97.0976	9.72507
1	42	95.5381	9.84843
1	43	99.1241	11.6876
1	44	98.6293	11.572
1	45	99.3336	9.63983
1	46	97.7388	9.60777
1	47	97.7843	11.2466
1	48	98.6637	10.9981
1	49	94.5911	9.19432
1	50	99.2826	12.027
1	51	97.0301	12.0673
1	52	95.9063	10.6322
1	53	97.6139	9.83582
1	54	101.48	11.1845
1	55	97.1702	12.1308
1	56	96.8592	10.8526
1	57	99.553	11.2964
1	58	95.2354	10.5592
1	59	96.9483	11.5974
1	60	97.8813	9.75833
1	61	96.5633	10.5263
1	62	99.9299	11.0717
1	63	96.033	9.51645
1	64	98.8561	11.1232
1	65	97.7231	11.4939
1	66	94.5414	9.64872
1	67	100.751	11.3007
1	68	96.0877	10.783
1	69	97.151	11.4664
1	70	96.2527	9.73478
1	71	100.206	11.6693
1	72	96.798	10.7737
1	73	96.4507	10.0231
1	74	94.7757	10.4867
1	75	99.8536	10.7625
1	76	98.7051	11.3402
1	77	97.9254	9.81249
1	78	97.8581	9.89325
1	79	96.966	10.9944
1	80	98.338	11.2584
1	81	94.14	9.50547
1	82	99.9224	11.1014
1	83	96.3769	11.9498
1	84	95.9267	11.0913
1	85	97.9344	10.1298
1	86	100.358	11.3498
1	87	96.5172	12.2598
1	88	96.5846	11.175
1	89	98.5947	10.8834
1	90	94.7472	11.1421
1	91	96.4063	11.8162
1	92	98.4075	10.2028
1	93	95.743	10.9041
1	94	99.0606	11.7782
1	95	96.1418	9.87385
1	96	97.4643	11.1446
1	97	97.2613	12.0349
1	98	92.8048	9.84604
1	99	100.603	11.9638
1	100	95.9367	11.2917
1	101	95.9545	12.3203
1	102	96.572	10.2465
1	103	98.6284	12.4173
1	104	96.7796	11.3909
1	105	95.6698	10.1087
1	106	93.9749	10.9619
1	107	98.8217	11.3422
1	108	98.31	12.0799
1	109	96.8157	10.3501
1	110	97.6338	10.41
1	111	95.7732	11.5816
1	112	97.5942	11.3325
1	113	93.879	9.85638
1	114	99.9763	11.504
1	115	96.2203	12.397
1	116	96.0001	11.4072
1	117	98.3401	10.6443
1	118	99.8992	11.7499
1	119	97.2	11.756
1	120	97.0245	11.7275
1	121	98.75	11.3011
1	122	94.3844	11.5288
1	123	96.2681	12.114
1	124	99.3146	10.7728
1	125	95.5874	11.2673
1	126	99.2803	11.3079
1	127	96.3151	10.2506
1	128	98.42	11.6857
1	129	96.6812	12.6653
1	130	93.5495	10.0335
1	131	99.8826	12.4171
1	132	96.8107	11.6833
1	133	97.3914	11.9657
1	134	97.7209	10.5793
1	135	100.22	11.7042
1	136	97.1918	11.8552
1	137	95.8571	10.3732
1	138	93.8551	11.3684
1	139	99.0334	11.8384
1	140	100.205	12.2098
1	141	97.5311	10.7958
1	142	97.7123	10.6609
1	143	95.9517	12.3283
1	144	99.3002	11.8857
1	145	94.5845	10.4667
1	146	101.082	12.1765
1	147	95.954	13.5333
1	148	97.0059	12.1379
1	149	98.3674	10.8907
1	150	100.086	12.4779
1	151	98.4138	12.6055
1	152	97.4636	12.4083
1	153	99.1107	11.8559
1	154	93.9872	12.172
1	155	96.3968	13.1234
1	156	99.5774	10.9086
1	157	95.7662	11.8479
1	158	100.05	11.7728
1	159	96.9654	10.7649
1	160	99.181	12.1601
1	161	95.9405	13.4795
1	162	93.8463	10.5303
1	163	101.282	12.0301
1	164	96.8587	12.2651
1	165	97.9515	12.5169
1	166	98.0828	11.0604
1	167	100.44	12.1084
1	168	97.0808	12.481
1	169	96.3598	10.8135
1	170	92.5332	11.4648
1	171	98.3724	12.3923
1	172	100.379	12.5368
1	173	96.8184	11.2269
1	174	98.1289	10.9764
1	175	94.7409	12.7775
1	176	99.1618	12.3478
1	177	93.3142	10.4869
1	178	100.322	12.591
1	179	97.9359	12.8739
1	180	96.3747	12.5236
1	181	98.2824	11.1639
1	182	98.9852	12.8295
1	183	97.7911	12.9809
1	184	96.7204	12.6457
1	185	98.2269	12.1433
1	186	93.1145	12.053
1	187	94.9624	13.4454
1	188	99.8836	11.2129
1	189	94.192	12.469
1	190	99.4348	12.1201
1	191	96.2485	11.1939
1	192	99.1586	12.5349
1	193	97.5294	13.1816
1	194	93.3478	10.9028
1	195	100.768	12.5356
1	196	96.3025	12.8576
1	197	97.1394	13.093
1	198	97.9342	11.5751
1	199	99.8686	12.7295
1	200	98.7617	12.7216
1	201	95.4616	11.3295
1	202	91.8154	12.3593
1	203	97.072	13.0399
1	204	100.495	13.1924
1	205	95.7461	11.7
1	206	98.0676	11.3862
1	207	95.1788	12.6717
1	208	99.7033	12.8874
1	209	92.8592	10.7837
1	210	99.6902	13.2072
1	211	97.2968	13.4648
1	212	96.4182	13.1853
1	213	98.8888	11.5656
1	214	99.5952	12.5489
1	215	97.3591	13.531
1	216	96.3108	12.7381
1	217	97.3183	12.6145
1	218	92.4593	12.3513
1	219	93.8997	14.1426
1	220	101.121	11.726
1	221	95.2565	12.3172
1	222	99.5344	12.6357
1	223	95.8427	11.2901
1	224	99.7803	13.2535
1	225	97.4639	13.5787
1	226	93.7256	11.3099
1	227	101.16	12.8861
1	228	96.6622	13.3308
1	229	97.0005	13.7242
1	230	97.3744	11.6346
1	231	99.8316	13.1402
1	232	96.7697	12.9408
1	233	96.0312	11.6773
1	234	91.578	12.4415
1	235	96.3619	13.6521
1	236	100.773	13.7607
1	237	94.8861	11.7682
1	238	98.8862	11.815
1	239	95.3603	13.184
1	240	100.231	13.3568
1	241	93.2434	11.1679
1	242	99.6829	13.819
1	243	97.4741	14.1246
1	244	95.8796	13.223
1	245	99.6287	12.1405
1	246	100.009	13.0081
1	247	97.8522	14.2401
1	248	96.7783	13.4526
1	249	96.7864	13.166
1	250	92.3115	12.8496
1	251	95.1721	14.2437
1	252	101.841	12.207
1	253	94.4578	12.8746
1	254	98.8051	13.171
1	255	95.6881	11.642
1	256	99.9426	13.8777
1	257	96.8265	14.2707
1	258	91.8541	11.5532
1	259	100.608	13.4398
1	260	95.6977	13.3222
1	261	96.5133	14.1828
1	262	97.553	11.9321
1	263	99.1287	13.555
1	264	96.3909	13.4392
1	265	95.8836	12.0824
1	266	90.9046	12.4872
1	267	97.3539	12.963
1	268	100.505	14.1694
1	269	94.237	12
1	270	98.9034	12.2414
1	271	94.2062	13.7077
1	272	100.346	14.0625
1	273	92.7341	11.5286
1	274	100.441	13.2331
1	275	96.6181	14.6532
1	276	95.6235	13.5622
1	277	99.4804	12.5099
1	278	99.3822	13.2825
1	279	96.4719	14.8575
1	280	97.5625	13.8718
1	281	97.5983	13.0031
1	282	92.2828	13.3233
1	283	95.211	14.6574
1	284	103.16	12.697
1	285	94.475	13.2585
1	286	99.0447	13.7847
1	287	95.9388	12.0972
1	288	99.4794	13.9001
1	289	96.6587	14.9857
1	290	92.7514	11.7965
1	291	100.846	14.076
1	292	96.3224	13.9606
1	293	96.1529	14.9892
1	294	98.5634	12.4696
1	295	99.3177	13.5264
1	296	97.1494	14.0718
1	297	94.5432	12.1201
1	298	90.6882	13.8361
1	299	97.2804	13.5029
1	300	102.08	14.9799
1	301	94.6192	12.4358
1	302	97.6175	12.5177
1	303	94.6854	14.2996
1	304	100.15	14.1531
1	305	92.981	11.991
1	306	101.094	13.7588
1	307	97.1229	15.3983
1	308	96.4944	14.1971
1	309	100.191	13.1142
1	310	99.7634	13.8683
1	311	98.1383	14.6276
1	312	97.2458	14.3503
1	313	97.1783	13.3092
1	314	91.067	14.027
1	315	94.5647	15.2018
1	316	103.447	13.185
1	317	93.7153	13.708
1	318	99.1321	13.3417
1	319	95.3924	12.4509
1	320	100.341	14.3971
1	321	96.3313	15.688
1	322	93.0711	12.1838
1	323	100.784	14.6411
1	324	96.6923	14.3448
1	325	97.0675	14.8558
1	326	99.0705	12.9022
1	327	99.8103	13.8512
1	328	97.2373	14.636
1	329	94.9579	12.5571
1	330	90.23	13.8154
1	331	97.0203	13.9314
1	332	102.047	14.9324
1	333	93.9447	12.7646
1	334	97.839	12.7823
1	335	93.2742	14.7102
1	336	100.583	14.5301
1	337	92.3461	12.3739
1	338	100.872	14.2361
1	339	97.289	15.2573
1	340	96.7272	14.6562
1	341	99.7597	13.1145
1	342	99.9003	14.4582
1	343	98.646	15.3147
1	344	97.4984	14.9359
1	345	96.9994	13.8861
1	346	90.1614	14.8634
1	347	93.9358	15.8516
1	348	102.936	13.2459
1	349	92.9457	14.4457
1	350	99.0656	13.9639
1	351	95.5903	13.1136
1	352	100.782	15.0535
1	353	95.2966	16.5078
1	354	92.6909	12.7196
1	355	101.139	14.2092
1	356	96.4098	15.1737
1	357	97.0197	15.4414
1	358	98.8014	13.485
1	359	99.5374	14.3471
1	360	97.2571	15.192
1	361	95.3893	13.0019
1	362	88.9019	14.5197
1	363	96.6882	14.5519
1	364	103.588	15.4879
1	365	93.7794	13.2506
1	366	98.7598	13.2449
1	367	92.6898	15.5526
1	368	101.464	15.1653
1	369	91.5307	12.631
1	370	101.781	14.814
1	371	98.3393	15.9675
1	372	97.0377	15.4158
1	373	100.28	13.579
1	374	99.5428	14.9927
1	375	98.7251	15.9896
1	376	96.5592	15.0752
1	377	96.4174	14.201
1	378	89.8225	14.4491
1	379	93.3062	16.3332
1	380	104.31	13.7675
1	381	93.2721	14.9112
1	382	99.8909	14.3153
1	383	94.3364	13.0743
1	384	101.461	15.4786
1	385	97.6895	16.1224
1	386	92.9632	13.0432
1	387	102.157	14.6505
1	388	96.7989	15.6229
1	389	97.6162	16.1192
1	390	99.849	13.9285
1	391	100.064	14.7947
1	392	96.5315	15.2886
1	393	95.3636	13.4596
1	394	88.4218	14.729
1	395	96.1962	15.2733
1	396	104.041	16.2145
1	397	93.2068	13.8021
1	398	99.4101	13.8087
1	399	93.5822	15.6773
1	400	102.116	15.8624
1	401	91.7131	13.0944
1	402	101.879	15.5528
1	403	98.7203	16.6326
1	404	96.8966	16.2347
1	405	100.676	14.0745
1	406	99.5289	14.7942
1	407	98.735	16.5258
1	408	97.0071	15.6555
1	409	95.779	14.8359
1	410	89.2457	15.2181
1	411	92.9052	17.1194
1	412	104.815	14.1516
1	413	93.3035	14.8637
1	414	99.332	14.8368
1	415	94.0488	13.5127
1	416	101.254	16.0264
1	417	96.9796	16.6075
1	418	92.3731	13.6143
1	419	101.937	15.1157
1	420	95.029	15.7641
1	421	97.0432	16.3697
1	422	97.6758	13.9351
1	423	99.232	15.2367
1	424	95.9301	15.7288
1	425	94.5603	13.8877
1	426	87.4797	15.6539
1	427	95.0158	15.8919
1	428	103.955	16.5479
1	429	91.0426	13.9587
1	430	99.2477	14.2409
1	431	92.9773	16.0614
1	432	101.921	16.1921
1	433	90.8013	13.312
1	434	101.144	15.9148
1	435	97.7936	17.0996
1	436	94.9634	16.0033
1	437	100.599	14.4958
1	438	98.5924	15.0853
1	439	97.9452	17.0655
1	440	97.4017	16.1004
1	441	95.5528	15.4397
1	442	89.126	15.9719
1	443	93.9228	17.0906
1	444	106.444	14.7372
1	445	93.4013	15.4159
1	446	99.6164	15.5329
1	447	94.6299	13.9625
1	448	102.73	16.952
1	449	97.4623	17.5221
1	450	90.9418	13.8674
1	451	102.576	15.8595
1	452	95.8276	16.573
1	453	97.2527	17.4089
1	454	99.1252	14.5243
1	455	99.8282	16.0647
1	456	96.4637	16.6072
1	457	92.5958	14.1422
1	458	87.2377	16.1654
1	459	95.8598	15.3789
1	460	105.786	17.4457
1	461	91.4303	14.244
1	462	100.268	14.7954
1	463	93.4442	16.6434
1	464	103.239	17.0412
1	465	91.3849	13.8069
1	466	102.437	15.6215
1	467	98.8221	17.7973
1	468	96.1	16.6515
1	469	101.904	15.2307
1	470	100.008	15.6334
1	471	98.9817	17.8944
1	472	97.5589	16.8093
1	473	95.4237	15.2293
1	474	88.1966	16.2034
1	475	94.0668	17.4713
1	476	107.24	15.2862
1	477	93.1237	15.8423
1	478	99.5204	15.975
1	479	94.4023	14.3467
1	480	100.905	16.9844
1	481	97.116	18.0452
1	482	91.031	14.2068
1	483	102.631	16.2603
1	484	96.1363	16.8373
1	485	97.1298	17.971
1	486	99.471	14.817
1	487	98.5617	15.7549
1	488	96.8364	16.9609
1	489	92.6956	14.4393
1	490	87.0375	16.5755
1	491	95.6176	15.745
1	492	105.643	18.0836
1	493	90.5077	14.7559
1	494	97.0202	14.8908
1	495	92.0888	17.3221
1	496	101.281	17.1297
1	497	90.6263	14.3475
1	498	102.011	16.2235
1	499	97.8941	18.4147
1	500	95.95	17.5985
1	501	98.4266	15.4535
1	502	97.512	15.8639
1	503	98.069	18.2305
1	504	96.8394	17.5616
1	505	92.435	15.2317
1	506	86.6293	17.3257
1	507	91.8612	18.6133
1	508	106.746	16.0299
1	509	91.0875	16.7878
1	510	95.8752	15.4219
1	511	92.5868	15.1179
1	512	101.119	17.8236
1	513	94.8832	19.1305
1	514	89.7821	14.7251
1	515	99.1407	16.5753
1	516	95.1242	17.7168
1	517	95.3395	18.0517
1	518	98.3255	15.5774
1	519	96.214	15.664
1	520	96.9824	17.8074
1	521	92.7637	14.9598
1	522	85.9284	17.205
1	523	93.5582	16.031
1	524	105.019	18.5023
1	525	88.7377	14.7081
1	526	97.9564	15.5865
1	527	91.1201	18.4386
1	528	102.591	18.173
1	529	89.6059	15.0888
1	530	100.549	16.2932
1	531	97.4901	18.9453
1	532	96.152	18.1118
1	533	99.4498	15.829
1	534	97.4225	16.3392
1	535	98.3798	18.6337
1	536	97.3271	18.2218
1	537	92.5164	15.5821
1	538	85.9765	17.5113
1	539	91.3552	19.1949
1	540	105.653	16.039
1	541	91.1909	17.2295
1	542	97.1494	15.9695
1	543	93.3712	15.668
1	544	102.054	18.4914
1	545	95.0999	20.027
1	546	90.3871	15.2401
1	547	99.9367	16.2183
1	548	95.8352	18.4626
1	549	96.4142	18.8611
1	550	99.3868	16.2103
1	551	96.8642	16.3745
1	552	96.5144	18.7809
1	553	92.3519	15.5251
1	554	84.2523	18.3676
1	555	92.8546	16.6904
1	556	105.596	19.2788
1	557	88.0831	15.2428
1	558	98.2565	16.1445
1	559	89.6831	19.1259
1	560	103.393	18.7613
1	561	88.1204	15.2365
1	562	100.696	16.9238
1	563	97.8042	19.5388
1	564	96.1514	18.9591
1	565	100.07	16.3819
1	566	97.1214	16.911
1	567	98.3294	19.3332
1	568	95.6352	18.2265
1	569	91.9499	16.1482
1	570	85.2613	18.4434
1	571	91.1265	19.8975
1	572	106.621	16.5768
1	573	89.9865	18.0001
1	574	96.7451	16.3352
1	575	90.853	15.8332
1	576	102.013	19.1012
1	577	95.6141	19.635
1	578	89.6201	15.7476
1	579	99.8412	16.627
1	580	95.6937	19.0284
1	581	96.5321	19.2192
1	582	96.4573	16.1089
1	583	97.2888	16.6603
1	584	94.8869	18.4287
1	585	92.5819	15.7841
1	586	83.8617	18.439
1	587	92.1827	17.3099
1	588	106.073	19.7159
1	589	87.4812	15.7575
1	590	98.5347	16.5341
1	591	90.2535	19.1744
1	592	103.24	19.3913
1	593	87.6211	15.8383
1	594	100.792	17.523
1	595	97.58	20.3939
1	596	95.6426	19.5858
1	597	100.22	16.9297
1	598	95.7755	16.8478
1	599	98.1866	20.014
1	600	96.3834	19.0724
1	601	92.2514	17.0428
1	602	85.1267	19.2871
1	603	91.1364	20.9458
1	604	108.165	17.2103
1	605	90.5781	18.0025
1	606	97.649	17.4554
1	607	91.2035	16.202
1	608	103.514	19.9772
1	609	96.1709	20.3895
1	610	90.1352	16.2216
1	611	100.942	17.753
1	612	94.0081	19.2187
1	613	96.4015	20.1285
1	614	97.4904	16.6225
1	615	97.3425	18.1056
1	616	95.224	19.2037
1	617	92.1623	16.3261
1	618	83.5404	18.9541
1	619	92.0579	17.8518
1	620	107.393	20.4507
1	621	86.5813	17.2001
1	622	99.1445	17.0703
1	623	90.9051	19.5131
1	624	104.05	20.139
1	625	88.1669	16.126
1	626	101.765	19.3082
1	627	98.0811	20.798
1	628	94.4637	19.4097
1	629	100.933	17.384
1	630	97.4261	18.6271
1	631	98.8158	20.3347
1	632	95.9914	19.238
1	633	92.3734	19.403
1	634	84.546	19.6886
1	635	90.9203	20.7197
1	636	108.312	17.4111
1	637	90.0718	18.4354
1	638	98.234	19.9177
1	639	91.3878	16.4119
1	640	103.638	19.9212
1	641	96.075	20.8377
1	642	87.5845	16.3394
1	643	102.293	20.6402
1	644	94.052	19.2497
1	645	96.2045	20.2409
1	646	98.1349	16.945
1	647	98.7472	21.8834
1	648	95.2116	19.137
1	649	89.5148	16.3176
1	650	83.0242	19.5987
1	651	93.5551	21.8174
1	652	107.276	20.4978
1	653	88.0244	21.6913
1	654	99.3848	17.4041
1	655	89.597	19.7778
1	656	101.19	19.4447
1	657	87.8609	16.3042
1	658	102.717	22.816
1	659	97.1087	20.69
1	660	95.3019	19.3063
1	661	101.994	17.9461
1	662	100.445	23.5314
1	663	97.5295	19.7267
1	664	96.8186	19.1615
1	665	94.3522	24.1039
1	666	84.3292	19.5269
1	667	90.7716	20.5005
1	668	110.259	17.8523
1	669	90.1502	18.5595
1	670	101.877	26.141
1	671	92.2333	16.5806
1	672	101.667	19.2046
1	673	95.5192	20.6554
1	674	89.1225	16.2128
1	675	106.432	26.8235
1	676	94.6971	19.1829
1	677	95.5915	20.0608
1	678	99.2518	17.4258
1	679	100.802	27.7152
1	680	96.8148	18.8854
1	681	92.1913	15.9211
1	682	83.8213	17.745
1	683	99.3085	28.477
1	684	108.727	20.1587
1	685	93.6326	28.5286
1	686	97.9739	17.2486
1	687	90.255	19.9641
1	688	103.661	19.0363
1	689	88.9758	15.9126
1	690	108.597	29.5882
1	691	97.0941	20.4709
1	692	95.7352	18.7217
1	693	99.2456	17.9242
1	694	104.648	30.1152
1	695	97.3376	19.3687
1	696	96.8658	18.9603
1	697	98.9679	30.8653
1	698	83.8493	19.8281
1	699	89.7933	20.0751
1	700	108.656	17.4758
1	701	90.2314	18.5949
1	702	106.572	32.3454
1	703	93.3763	16.9043
1	704	103.493	19.0626
1	705	94.8122	20.9096
1	706	90.0843	16.0706
1	707	112.169	33.9204
1	708	95.5252	18.8505
1	709	95.7724	19.5385
1	710	100.381	18.3369
1	711	107.142	34.8557
1	712	96.2732	18.4271
1	713	92.1289	15.8381
1	714	83.0115	17.6385
1	715	104.454	35.6284
1	716	106.979	19.7101
1	717	99.1125	35.4555
1	718	98.9963	17.5753
1	719	89.1694	20.5329
1	720	104.807	18.9366
1	721	89.2787	16.1788
1	722	115.302	36.0124
1	723	97.4029	20.0721
1	724	95.9221	18.1926
1	725	101.078	19.1983
1	726	110.766	36.5333
1	727	97.596	19.1787
1	728	97.0933	18.7383
1	729	106.04	37.4791
1	730	84.064	17.5407
1	731	89.8659	20.2486
1	732	109.932	17.717
1	733	89.2746	18.3225
1	734	112.666	38.8379
1	735	93.2068	16.7361
1	736	103.662	18.756
1	737	94.836	19.0482
1	738	90.4467	15.9489
1	739	117.459	38.3961
1	740	95.0504	17.716
1	741	96.0134	19.1244
1	742	100.519	18.7745
1	743	113.28	40.8332
1	744	93.5952	17.4748
1	745	92.2235	15.7952
1	746	82.6294	17.9719
1	747	111.917	41.1656
1	748	107.519	19.7084
1	749	106.09	40.8787
1	750	99.6142	17.8755
1	751	88.8416	21.2785
1	752	104.509	19.8425
1	753	87.3605	16.2608
1	754	120.356	41.4233
1	755	95.9144	19.1253
1	756	93.9538	19.3474
1	757	100.774	20.4342
1	758	114.483	40.8254
1	759	95.717	20.2979
1	760	94.3807	17.1428
1	761	111.054	42.4371
1	762	86.2953	18.7176
1	763	90.7617	20.3321
1	764	110.016	17.9509
1	765	90.3026	17.3457
1	766	117.981	42.5059
1	767	90.54	17.4705
1	768	103.334	17.6818
1	769	95.277	21.1272
1	770	88.1569	15.6399
1	771	120.589	40.165
1	772	94.2658	16.5956
1	773	96.5853	17.7959
1	774	97.7545	20.6991
1	775	115.621	44.8142
1	776	93.0785	16.6002
1	777	90.1562	17.2025
1	778	84.9043	16.7564
1	779	113.305	43.2198
1	780	109.39	19.3238
1	781	105.493	41.1569
1	782	98.3359	20.1109
1	783	88.5503	20.6781
1	784	104.253	17.8818
1	785	81.8053	18.8328
1	786	116.56	40.5677
1	787	97.7253	18.3892
1	788	92.0173	17.5246
1	789	97.0057	22.1854
1	790	106.805	38.1755
1	791	96.5613	18.0362
1	792	91.3381	17.2116
1	793	113.55	50.8995
1	794	93.5195	28.4534
1	795	92.6	22.8185
1	796	108.358	24.7295
1	797	93.0787	27.085
1	798	107.418	39.4841
1	799	86.2143	16.0268
1	800	97.1622	17.3765
1	801	95.7415	23.2621
1	802	79.8584	16.9503
1	803	110.167	34.6831
1	804	87.7	16.7751
1	805	97.3127	19.6703
1	806	98.1209	22.0057
1	807	102.197	37.4464
1	808	89.6508	27.3426
1	809	86.403	17.4773
1	810	90.549	20.4864
1	811	97.0448	27.0053
1	812	113.14	19.8304
1	813	96.629	44.2764
1	814	96.5321	16.6192
1	815	88.4184	22.2226
1	816	98.2198	20.0676
1	817	74.6134	16.0032
1	818	94.3919	20.737
1	819	99.1311	18.8763
1	820	84	15.8465
1	821	95.0893	18.612
1	822	92.386	22.9571
1	823	105.091	17.1344
1	824	87.1379	19.3663
1	825	108.806	72.3376
1	826	97.8	15.4088
1	827	98.7568	25.2184
1	828	94.6452	23.4039
1	829	103.432	26.795
1	830	85.4091	18.5797
1	831	80.18	15.3964
1	832	87.7273	20.6099
1	833	93.0877	24.5919
1	834	73.2653	17.7198
1	835	97.1944	29.132
1	836	77	15.7138
1	837	97.7358	19.731
1	838	95.5938	22.5086
1	839	90.2857	23.1887
1	840	85.2	17.6643
1	841	82.5556	14.8134
1	842	105.75	22.1435
1	843	90.5333	22.0353
1	844	117.906	29.9918
1	845	92.8667	20.7084
1	846	93.6296	19.2117
1	847	99.7917	23.6918
1	848	86.5714	17.1317
1	849	84.1905	17.3223
1	850	93.4167	13.1388
1	851	105.286	19.7057
1	852	85.4	17.1801
1	853	93.5	18.1218
1	854	85.9167	18.4019
1	855	97.4444	21.2637
1	856	93	14.4222
1	857	85.3333	25.03
1	858	106.125	10.723
1	859	106.5	20.5218
1	860	80	25.028
1	861	127.429	18.1829
1	862	115.667	33.0051
1	863	81.7778	20.9749
1	864	88.5556	18.6287
1	865	104.667	17.1464
1	866	85.4286	28.4831
1	867	93	20.2608
1	868	93.75	26.8375
1	869	102.571	26.5007
1	870	90.1429	29.7793
1	871	93.7143	39.0415
1	872	82.75	20.998
1	873	82.6	30.1214
1	874	99.25	15.8614
1	875	95.2	16.6042
1	876	115.5	13.1022
1	877	100.25	33.9448
1	878	92	22.2935
1	879	114.8	27.9768
1	880	101	10.5357
1	881	86.6	11.1937
1	882	68	0
1	883	83	13.1403
1	884	98.6667	20.8407
1	885	98	17.2916
1	886	87	24.2693
1	887	100	24.5764
1	888	112.5	13.435
1	889	74.6667	3.21455
1	890	116	7.07107
1	891	90.5	17.6777
1	892	75	9.89949
1	893	99	4.24264
1	894	113	NA
1	895	78.5	24.7487
1	896	107.5	14.8492
1	897	128	18.3848
1	898	97	46.669
1	899	104	NA
1	900	76	NA
1	902	74	NA
1	903	92	NA
1	904	77	NA
1	905	93	NA
1	906	138	NA
1	907	95	NA
1	908	113	NA
1	909	109	NA
1	910	106	NA
1	912	89	NA
1	913	85	NA
1	914	68	NA
1	916	102	NA
1	917	131	NA
1	918	104	NA
2	7	205.434	14.9752
2	8	199.697	12.0817
2	9	198.536	11.2717
2	10	195.218	12.0706
2	11	202.439	11.3071
2	12	199.244	12.4845
2	13	202.994	11.3715
2	14	197.114	11.4256
2	15	197.026	14.0201
2	16	200.173	12.5924
2	17	193.272	11.2561
2	18	203.195	11.5368
2	19	197.894	14.513
2	20	202.872	14.4687
2	21	199.781	11.7275
2	22	206.027	12.5457
2	23	200.481	15.3144
2	24	199.545	14.8001
2	25	203.677	11.414
2	26	200.295	12.8775
2	27	200.505	15.1066
2	28	199.801	11.4896
2	29	201.556	14.5932
2	30	204.211	11.2727
2	31	197.971	11.3387
2	32	202.415	14.2196
2	33	199.356	14.3467
2	34	197.79	11.3988
2	35	203.451	11.0493
2	36	203.067	14.1981
2	37	200.17	13.9016
2	38	197.174	11.5627
2	39	204.02	11.5064
2	40	200.02	14.1346
2	41	200.908	11.8224
2	42	197.372	14.6184
2	43	204.016	11.3673
2	44	201.026	13.5693
2	45	200.827	11.2122
2	46	201.081	11.5212
2	47	198.873	13.7087
2	48	203.344	14.011
2	49	195.626	11.1822
2	50	204.242	11.5689
2	51	199.069	13.9619
2	52	198.6	13.8022
2	53	201.075	11.5811
2	54	202.874	11.7482
2	55	199.83	13.8622
2	56	199.764	13.901
2	57	203.431	11.555
2	58	199.293	12.7744
2	59	196.101	13.6978
2	60	200.813	11.3521
2	61	197.649	12.9467
2	62	203.439	11.341
2	63	197.774	11.3083
2	64	203.001	14.2505
2	65	198.688	13.5329
2	66	197.463	11.3451
2	67	203.04	11.3516
2	68	198.599	13.905
2	69	199.047	13.6713
2	70	197.723	11.6236
2	71	203.757	11.8571
2	72	199.743	14.1383
2	73	199.466	11.9871
2	74	195.872	13.987
2	75	199.68	11.346
2	76	200.035	13.4166
2	77	199.369	11.8252
2	78	200.212	11.7866
2	79	197.247	13.4442
2	80	203.068	14.0306
2	81	194.975	11.3322
2	82	200.087	11.3849
2	83	197.856	13.8244
2	84	198.474	13.9671
2	85	200.871	11.947
2	86	201.737	11.9796
2	87	198.809	14.1545
2	88	199.329	14.1566
2	89	198.481	11.6818
2	90	198.785	13.1573
2	91	195.491	14.1734
2	92	201.019	11.7857
2	93	196.413	13.2551
2	94	202.604	11.9263
2	95	197.541	11.8109
2	96	198.287	14.2853
2	97	198.052	14.2389
2	98	192.927	11.8018
2	99	202.759	11.9712
2	100	198.631	14.0975
2	101	197.866	14.3306
2	102	198.087	12.0725
2	103	202.713	12.4356
2	104	199.959	14.4064
2	105	196.008	12.0907
2	106	195.214	14.5377
2	107	198.908	11.5762
2	108	199.622	13.8495
2	109	198.472	11.9391
2	110	200.126	12.2157
2	111	196.074	13.9006
2	112	198.715	14.2706
2	113	194.575	11.5595
2	114	199.827	11.7372
2	115	197.259	14.0374
2	116	198.404	13.9492
2	117	200.908	12.3954
2	118	201.034	12.32
2	119	195.864	14.4379
2	120	200.253	14.7151
2	121	199.188	11.9935
2	122	198.9	13.4421
2	123	195.736	14.1509
2	124	202.02	12.4537
2	125	196.455	14.0211
2	126	199.457	12.0146
2	127	197.792	12.1656
2	128	199.459	14.7367
2	129	197.93	14.7375
2	130	193.855	12.0367
2	131	202.708	12.3006
2	132	199.52	14.5597
2	133	195.966	14.2312
2	134	199.187	12.4086
2	135	200.154	12.3305
2	136	200.508	14.8624
2	137	196.186	12.4617
2	138	195.206	15.0193
2	139	199.582	11.9593
2	140	198.992	14.3709
2	141	199.902	12.4257
2	142	198.107	12.5127
2	143	197.043	14.8534
2	144	200.984	14.9438
2	145	195.849	12.2746
2	146	201.87	12.3106
2	147	198.05	15.0881
2	148	200.188	14.7255
2	149	198.936	12.6865
2	150	202.304	12.9833
2	151	197.885	14.8135
2	152	200.866	15.2022
2	153	199.914	12.5683
2	154	198.956	14.406
2	155	196.156	14.99
2	156	199.821	12.497
2	157	196.978	14.3633
2	158	200.574	12.4293
2	159	198.646	12.6367
2	160	200.43	15.357
2	161	197.724	15.0512
2	162	194.346	12.5138
2	163	200.422	12.4479
2	164	200.055	15.2455
2	165	196.935	14.7634
2	166	199.704	12.9502
2	167	200.874	12.7976
2	168	200.806	15.4177
2	169	196.915	12.9245
2	170	191.727	15.3919
2	171	199.861	12.4531
2	172	199.094	14.8473
2	173	199.343	12.8205
2	174	198.474	12.8452
2	175	195.91	14.8806
2	176	200.74	15.2688
2	177	192.053	12.5873
2	178	201.422	12.7718
2	179	196.62	15.1112
2	180	199.336	15.2429
2	181	198.787	13.1136
2	182	201.467	13.1438
2	183	197.172	15.3509
2	184	199.917	15.8045
2	185	199.288	12.8685
2	186	194.175	14.6192
2	187	194.859	15.1379
2	188	200.176	12.8654
2	189	195.525	14.5877
2	190	200.098	12.7463
2	191	197.936	13.0584
2	192	200.407	15.7363
2	193	195.981	15.3214
2	194	193.942	12.8417
2	195	200.231	12.8972
2	196	199.624	15.6215
2	197	196.284	15.156
2	198	199.734	13.4588
2	199	200.72	13.3473
2	200	199.733	15.8932
2	201	196.275	13.5468
2	202	191.25	16.1773
2	203	199.406	12.9442
2	204	199.45	15.2148
2	205	198.687	13.3443
2	206	198.568	13.3258
2	207	193.497	15.2696
2	208	201.621	15.8827
2	209	191.871	12.9347
2	210	201.271	13.1921
2	211	196.205	15.6452
2	212	200.092	15.8599
2	213	199.752	13.4828
2	214	198.727	13.4095
2	215	197.246	15.5339
2	216	197.141	16.021
2	217	199.153	13.2471
2	218	194.489	15.0671
2	219	194.559	15.7163
2	220	201.78	13.5614
2	221	194.103	15.2281
2	222	200.947	13.2267
2	223	195.462	13.414
2	224	201.578	16.2965
2	225	196.587	15.7369
2	226	194.936	13.3667
2	227	201.218	13.319
2	228	200.664	16.1339
2	229	196.826	15.6889
2	230	197.236	13.5949
2	231	201.504	13.6953
2	232	198.134	16.2489
2	233	197.421	13.7598
2	234	191.608	16.2366
2	235	199.688	13.4878
2	236	200.196	15.8041
2	237	195.482	13.715
2	238	199.906	13.7063
2	239	194.371	15.5296
2	240	202.639	16.3509
2	241	192.642	13.2565
2	242	202.099	13.7579
2	243	196.922	16.1237
2	244	196.948	16.1106
2	245	200.823	14.0288
2	246	199.416	13.822
2	247	197.965	16.2071
2	248	197.776	16.8096
2	249	199.034	13.8745
2	250	194.623	15.6634
2	251	192.781	16.2774
2	252	202.433	13.9641
2	253	193.464	15.7386
2	254	200.408	13.7432
2	255	195.309	13.7437
2	256	201.658	16.8439
2	257	196.048	16.3371
2	258	190.653	13.5565
2	259	200.862	13.7114
2	260	196.464	16.5428
2	261	196.26	16.2396
2	262	197.236	14.0009
2	263	200.86	14.0262
2	264	197.795	16.6237
2	265	197.156	14.1254
2	266	191.028	16.7647
2	267	196.328	13.5961
2	268	199.887	16.1914
2	269	195.111	14.1909
2	270	199.803	14.2479
2	271	193.388	15.8363
2	272	202.769	16.8405
2	273	192.341	13.6101
2	274	198.975	13.8831
2	275	196.305	16.6478
2	276	196.962	16.7363
2	277	200.751	14.5401
2	278	199.393	14.2477
2	279	197.102	16.731
2	280	199.197	17.0795
2	281	197.032	14.1139
2	282	195.914	16.1906
2	283	193.756	16.5319
2	284	204.364	14.6126
2	285	194.284	15.9916
2	286	201.575	14.2269
2	287	196.206	14.0679
2	288	199.179	17.3081
2	289	196.762	16.5762
2	290	192.145	13.8831
2	291	201.991	14.289
2	292	197.945	17.1469
2	293	196.765	16.5566
2	294	198.703	14.4377
2	295	198.155	14.3147
2	296	199.126	17.2621
2	297	193.557	14.3632
2	298	191.272	17.9887
2	299	197.041	14.0597
2	300	201.57	16.9739
2	301	195.518	14.4201
2	302	196.064	14.4957
2	303	193.956	16.6733
2	304	199.818	17.2654
2	305	192.58	14.1178
2	306	199.609	14.2474
2	307	196.906	17.0361
2	308	197.681	17.2764
2	309	201.265	14.9813
2	310	199.758	14.5797
2	311	195.802	17.0152
2	312	198.448	17.5918
2	313	196.349	14.4205
2	314	194.418	16.4469
2	315	192.807	16.9825
2	316	203.846	15.1108
2	317	193.023	15.8745
2	318	197.759	14.272
2	319	195.173	14.4258
2	320	199.893	17.9513
2	321	196.451	17.5658
2	322	192.257	14.3724
2	323	202.007	14.8611
2	324	198.104	17.4799
2	325	194.547	16.9653
2	326	198.971	14.9721
2	327	198.814	14.7163
2	328	199.148	17.6055
2	329	193.878	14.559
2	330	190.923	17.763
2	331	197.219	14.4069
2	332	199.09	17.2808
2	333	195.367	14.7586
2	334	196.593	14.6098
2	335	193.122	16.9898
2	336	200.499	17.726
2	337	192.313	14.3926
2	338	200.075	14.6742
2	339	194.562	17.3682
2	340	198.499	17.7296
2	341	198.725	15.0606
2	342	200.522	15.1625
2	343	196.805	17.7904
2	344	199.226	18.0135
2	345	196.818	14.7677
2	346	194.307	16.8326
2	347	192.8	17.4046
2	348	201.451	15.0988
2	349	193.085	17.1015
2	350	198.21	14.8741
2	351	195.788	14.9942
2	352	200.279	18.4508
2	353	195.991	18.1213
2	354	192.004	14.7084
2	355	198.867	14.8223
2	356	198.118	18.2099
2	357	194.802	17.5844
2	358	198.826	15.3728
2	359	198.809	15.1408
2	360	199.295	18.2103
2	361	194.241	15.0631
2	362	187.674	18.8757
2	363	197.136	14.8617
2	364	200.359	17.879
2	365	195.186	15.179
2	366	197.367	15.1138
2	367	192.888	17.4507
2	368	201.346	18.3996
2	369	189.095	14.8161
2	370	200.882	15.2672
2	371	195.668	18.1417
2	372	198.692	18.0585
2	373	199.103	15.5804
2	374	200.286	15.6952
2	375	196.789	18.1723
2	376	195.665	18.3221
2	377	196.53	15.2525
2	378	190.71	17.3801
2	379	192.505	17.9493
2	380	202.698	15.7872
2	381	193.63	17.4256
2	382	199.213	15.168
2	383	192.04	14.9924
2	384	200.919	18.8563
2	385	195.189	17.9525
2	386	192.417	15.0108
2	387	199.94	15.2529
2	388	198.66	18.4651
2	389	195.554	18.1739
2	390	199.851	15.7511
2	391	199.449	15.5461
2	392	196.072	18.7873
2	393	194.504	15.4832
2	394	187.583	20.0723
2	395	197.219	15.2978
2	396	201.074	18.7613
2	397	195.07	15.6243
2	398	198.093	15.6841
2	399	190.866	18.6903
2	400	201.766	18.9984
2	401	189.235	15.1501
2	402	201.094	15.8558
2	403	196.071	18.7338
2	404	198.584	18.765
2	405	199.353	15.9541
2	406	196.675	15.7236
2	407	196.701	18.6162
2	408	195.93	18.9455
2	409	196.005	15.597
2	410	190.277	18.2932
2	411	192.087	18.7056
2	412	202.689	16.1705
2	413	190.687	17.6349
2	414	198.5	15.5814
2	415	191.709	15.3476
2	416	200.398	19.2853
2	417	194.353	18.8531
2	418	191.789	15.3602
2	419	199.715	15.7303
2	420	194.15	18.7646
2	421	194.88	18.4242
2	422	195.187	15.7675
2	423	198.645	15.8879
2	424	195.53	19.0522
2	425	193.758	15.7467
2	426	187.268	20.9564
2	427	196.449	15.8814
2	428	200.764	19.2644
2	429	190.273	16.2717
2	430	197.927	16.0314
2	431	190.731	18.5973
2	432	201.586	19.3972
2	433	188.54	15.3484
2	434	200.596	16.2046
2	435	195.306	18.9248
2	436	194.192	18.9955
2	437	199.405	16.2948
2	438	196.237	16.1204
2	439	196.291	19.1976
2	440	196.732	19.5411
2	441	196.543	16.2604
2	442	190.649	18.3267
2	443	190.652	19.2177
2	444	204.53	17.0597
2	445	191.414	18.7679
2	446	199.304	16.2955
2	447	192.646	15.8121
2	448	202.113	20.2633
2	449	195.554	19.619
2	450	188.412	15.7688
2	451	200.707	16.3895
2	452	195.347	19.4829
2	453	195.675	19.1996
2	454	196.982	16.4124
2	455	199.866	16.6117
2	456	196.277	19.8254
2	457	189.512	16.0221
2	458	187.298	20.9721
2	459	193.42	15.9604
2	460	201.987	20.0921
2	461	190.483	16.3929
2	462	198.599	16.6147
2	463	191.061	19.0446
2	464	202.625	20.3163
2	465	189.096	15.6606
2	466	198.278	16.2554
2	467	196.347	19.4696
2	468	195.36	19.4964
2	469	200.478	16.9694
2	470	197.654	16.5629
2	471	197.422	19.9027
2	472	196.697	20.0779
2	473	192.894	16.4883
2	474	190.184	18.5662
2	475	190.885	19.5164
2	476	204.633	17.975
2	477	191.12	19.0779
2	478	199.203	16.8141
2	479	192.278	16.0281
2	480	198.438	19.9345
2	481	195.627	20.0557
2	482	188.813	15.933
2	483	201.046	16.8221
2	484	195.81	19.7152
2	485	195.867	19.8562
2	486	197.355	16.6412
2	487	195.566	16.5
2	488	196.725	19.7569
2	489	189.67	16.2444
2	490	187.197	21.9447
2	491	193.353	16.2297
2	492	202.073	20.7752
2	493	190.065	16.8877
2	494	193.499	16.5313
2	495	190.182	20.1555
2	496	198.732	20.4446
2	497	188.586	16.1511
2	498	198.218	16.7911
2	499	195.825	20.2037
2	500	197.75	19.0997
2	501	195.935	17.076
2	502	197.997	17.632
2	503	196.224	20.4127
2	504	198.439	19.2438
2	505	192.345	17.175
2	506	191.389	17.9085
2	507	191.16	20.108
2	508	204.91	18.6574
2	509	191.721	19.3897
2	510	195.116	17.1688
2	511	191.627	16.7191
2	512	200.488	19.7948
2	513	195.528	20.2466
2	514	188.248	16.5115
2	515	200.293	17.8204
2	516	197.128	19.1219
2	517	193.587	20.105
2	518	196.971	17.2842
2	519	195.696	17.3731
2	520	199.258	19.5095
2	521	190.795	16.7074
2	522	188.84	20.1262
2	523	194.419	17.2372
2	524	201.321	21.1977
2	525	190.755	17.5228
2	526	195.572	17.2238
2	527	192.188	20.3714
2	528	202.031	20.1788
2	529	189.012	16.7229
2	530	199.768	18.034
2	531	195.326	20.3665
2	532	198.175	19.4098
2	533	197.077	17.3622
2	534	198.392	18.0533
2	535	196.837	20.8815
2	536	199.046	19.6993
2	537	192.864	17.4739
2	538	188.003	18.8167
2	539	191.262	20.4659
2	540	202.184	18.0486
2	541	192.216	19.5549
2	542	196.653	17.6089
2	543	192.584	17.1167
2	544	201.187	20.4641
2	545	196.241	20.6479
2	546	188.923	16.9523
2	547	197.954	17.7935
2	548	197.929	19.789
2	549	194.803	21.033
2	550	197.829	18.0018
2	551	196.237	17.8693
2	552	198.771	20.2971
2	553	190.408	17.3077
2	554	185.678	21.5323
2	555	194.113	17.6774
2	556	201.82	21.7938
2	557	190.226	17.936
2	558	195.653	17.609
2	559	191.156	20.71
2	560	202.657	21.019
2	561	185.297	17.2386
2	562	199.902	18.4526
2	563	195.621	21.0202
2	564	198.292	19.9563
2	565	197.626	17.8302
2	566	198.353	18.5493
2	567	196.718	21.0129
2	568	195.721	20.1968
2	569	192.849	17.9836
2	570	188.154	19.257
2	571	191.423	20.8103
2	572	202.684	19.0524
2	573	191.394	20.2042
2	574	196.469	18.1595
2	575	187.906	17.2485
2	576	200.957	20.7188
2	577	193.875	21.2582
2	578	188.363	17.3073
2	579	198.034	18.2904
2	580	197.89	20.2029
2	581	194.932	20.8862
2	582	192.943	17.5506
2	583	196.924	18.3423
2	584	195.125	19.9841
2	585	190.644	17.6465
2	586	185.821	22.5516
2	587	193.891	18.0886
2	588	201.924	22.4251
2	589	189.873	18.4567
2	590	195.99	17.8577
2	591	189.117	21.5072
2	592	202.264	21.63
2	593	184.659	17.7001
2	594	199.516	19.104
2	595	195.069	21.446
2	596	197.48	20.6356
2	597	197.266	18.3614
2	598	193.375	18.4893
2	599	196.403	21.5908
2	600	195.713	20.6735
2	601	192.817	18.4182
2	602	187.489	19.25
2	603	191.339	21.5413
2	604	203.259	19.9263
2	605	189.428	21.39
2	606	197.105	18.8755
2	607	188.278	17.534
2	608	201.792	21.9563
2	609	194.361	21.6679
2	610	188.837	17.6419
2	611	198.766	19.0525
2	612	194.09	20.6258
2	613	194.944	21.9241
2	614	193.818	17.8662
2	615	197.115	19.1626
2	616	195.531	20.4454
2	617	190.51	17.7394
2	618	185.814	21.9566
2	619	190.239	18.8186
2	620	202.353	23.3503
2	621	186.174	19.5814
2	622	196.221	18.4543
2	623	189.859	21.8372
2	624	202.398	22.386
2	625	185.393	17.8669
2	626	200.478	20.6685
2	627	195.72	21.7977
2	628	194.362	20.5999
2	629	197.706	18.7146
2	630	195.094	19.8119
2	631	197.109	22.2117
2	632	195.559	20.7764
2	633	192.987	19.8703
2	634	187.146	19.9371
2	635	188.575	22.272
2	636	203.228	20.2101
2	637	189.127	21.4164
2	638	197.555	20.6057
2	639	188.439	17.7715
2	640	201.839	21.6414
2	641	194.431	21.8581
2	642	184.325	17.8994
2	643	199.942	21.0551
2	644	194.024	20.4397
2	645	194.724	22.23
2	646	194.316	18.243
2	647	198.123	21.7475
2	648	195.328	20.6036
2	649	185.595	18.1639
2	650	185.048	22.1155
2	651	190.992	21.2567
2	652	202.314	23.2348
2	653	186.974	21.7975
2	654	196.527	18.8568
2	655	188.751	21.9207
2	656	198.622	21.0737
2	657	185.113	17.8859
2	658	198.688	22.7252
2	659	194.978	21.8313
2	660	195.417	20.5824
2	661	198.895	19.3692
2	662	198.024	22.6653
2	663	194.287	21.8652
2	664	196.825	21.1835
2	665	191.412	22.5688
2	666	187.854	19.0338
2	667	188.937	21.3253
2	668	204.57	21.5728
2	669	189.976	21.1253
2	670	201.548	25.191
2	671	190.009	17.6994
2	672	199.351	20.7852
2	673	194.86	21.1914
2	674	186.612	17.5266
2	675	203.917	25.7864
2	676	195.586	20.4969
2	677	195.107	20.95
2	678	195.811	19.0355
2	679	197.497	25.982
2	680	197.52	20.2855
2	681	188.854	17.8959
2	682	186.503	21.5667
2	683	197.015	25.7772
2	684	203.694	23.4767
2	685	192.215	25.8287
2	686	193.824	18.5006
2	687	190.227	21.5758
2	688	201.189	20.8416
2	689	186.643	17.6081
2	690	204.146	28.0718
2	691	195.457	21.6345
2	692	196.402	20.3058
2	693	194.79	18.8477
2	694	201.78	27.6985
2	695	194.327	21.4005
2	696	197.154	20.652
2	697	195.313	27.3799
2	698	187.819	18.7187
2	699	188.474	21.0902
2	700	202.261	20.361
2	701	191.022	21.2329
2	702	202.919	29.7534
2	703	191.974	18.5894
2	704	201.205	21.3126
2	705	195.327	20.9057
2	706	187.676	17.7425
2	707	208.761	31.2287
2	708	196.997	19.0289
2	709	193.377	20.9744
2	710	197.247	19.9359
2	711	203.39	31.8759
2	712	197.861	20.4355
2	713	189.554	17.3504
2	714	186.169	19.9839
2	715	202.155	31.1852
2	716	201.38	22.5585
2	717	196.655	31.2876
2	718	195.431	19.0569
2	719	190.095	21.0622
2	720	202.398	21.2294
2	721	187.821	17.9805
2	722	210.279	34.2558
2	723	193.36	21.2368
2	724	197.434	21.2916
2	725	196.746	20.6904
2	726	206.99	33.1862
2	727	194.763	21.5536
2	728	197.939	19.5865
2	729	201.595	32.5202
2	730	186.349	19.5167
2	731	189.788	19.9144
2	732	203.511	21.6702
2	733	191.425	19.4243
2	734	208.328	35.2128
2	735	192.55	17.8205
2	736	201.885	19.5025
2	737	193.529	19.8404
2	738	189.261	17.0949
2	739	211.459	35.5479
2	740	197.484	19.61
2	741	193.504	20.1692
2	742	196.94	20.3975
2	743	208.101	37.3943
2	744	193.16	19.7758
2	745	189.534	17.4593
2	746	184.371	20.6376
2	747	209.655	37.9091
2	748	201.389	24.0506
2	749	199.866	36.7448
2	750	196.326	19.401
2	751	189.764	19.5014
2	752	202.406	20.4363
2	753	184.301	18.1789
2	754	218.344	40.2405
2	755	190.183	20.271
2	756	195.843	21.5509
2	757	196.501	20.3722
2	758	211.236	38.224
2	759	192.009	21.5386
2	760	193.605	19.1444
2	761	206.314	39.758
2	762	186.957	17.7413
2	763	187.329	17.3483
2	764	202.909	20.3454
2	765	190.15	18.1691
2	766	208.826	36.5973
2	767	189.045	16.4121
2	768	200.582	18.9325
2	769	192.227	21.6804
2	770	189.639	16.8393
2	771	213.464	38.6767
2	772	197.136	17.4921
2	773	191.253	17.725
2	774	189.295	21.6021
2	775	214.782	41.3779
2	776	195.918	20.6954
2	777	191.856	22.4463
2	778	183	13.9704
2	779	215.934	39.4282
2	780	197.749	21.2924
2	781	192.265	36.8946
2	782	196.765	18.5557
2	783	185.5	18.9719
2	784	200.05	20.7486
2	785	186.471	16.9875
2	786	225.547	44.8537
2	787	191.186	17.9556
2	788	195.857	16.2378
2	789	195.786	19.8564
2	790	201.841	40.8322
2	791	194.671	20.9365
2	792	201.086	29.2176
2	793	240.094	62.9009
2	794	176.143	10.8847
2	795	179.222	17.5484
2	796	206.418	29.504
2	797	182.633	18.6779
2	798	199.383	25.2491
2	799	185	11.2175
2	800	190.476	19.0621
2	801	182.867	16.5739
2	802	182.4	21.5012
2	803	193.703	29.5972
2	804	187.5	13.4433
2	805	177.333	17.3191
2	806	180.229	16.0181
2	807	238.54	64.7618
2	808	187	19.4716
2	809	187.8	6.53452
2	810	165	NA
2	811	168	NA
2	812	201.95	21.3286
2	813	198.945	44.595
2	814	188.857	26.1471
2	815	172.333	21.0079
2	816	191.667	29.313
2	817	180.5	12.0208
2	818	212.333	5.03322
2	819	172	14.2595
2	821	182.12	17.1715
2	822	203.5	44.9333
2	823	187.812	20.0764
2	824	187	NA
2	825	216.767	65.9706
2	826	159	NA
2	827	176	17.5642
2	828	203.133	23.302
2	829	183.143	14.5118
2	830	204.25	18.9789
2	832	178.5	13.435
2	833	190	22.0681
2	834	169	NA
2	835	180	5.65685
2	836	162	NA
2	837	158	NA
2	838	169.667	10.3199
2	839	280	64.605
2	842	197	NA
2	844	196.308	27.5178
2	845	187.643	27.3175
2	846	177	NA
2	847	179	10.8167
2	849	168	NA
2	851	170	NA
2	855	171.5	9.19239
2	856	171	NA
2	859	159	NA
2	860	207	8.48528
2	861	180	16.5227
2	862	173	21.2132
2	867	163	NA
2	869	180.5	3.53553
2	870	188	18.3848
2	876	179.6	23.3838
2	877	200	18.3848
2	879	192	NA
2	883	223	NA
2	887	207	NA
2	888	181	NA
2	891	168	NA
2	901	171	NA
2	911	163	NA
2	915	185	NA
2	919	171	NA
3	7	307.663	18.087
3	8	300.567	15.1442
3	9	300.605	14.7686
3	10	298.094	14.7947
3	11	304.982	13.9984
3	12	302.19	15.4415
3	13	303.842	14.1365
3	14	298.816	15.0762
3	15	301.084	16.8701
3	16	300.857	15.1213
3	17	296.762	14.5236
3	18	306.383	14.2682
3	19	302.889	16.8539
3	20	304.443	16.527
3	21	301.871	14.5101
3	22	308.879	15.1137
3	23	304.848	16.7003
3	24	299.236	17.0069
3	25	305.423	13.6826
3	26	301.191	17.1012
3	27	306.466	16.6925
3	28	302.027	14.165
3	29	305.737	16.8142
3	30	305.92	13.2483
3	31	298.088	14.0315
3	32	303.698	16.0901
3	33	303.371	16.4646
3	34	300.873	14.2481
3	35	305.017	13.3074
3	36	304.847	16.3437
3	37	304.837	16.2105
3	38	298.088	14.0957
3	39	305.907	13.7933
3	40	299.407	16.5046
3	41	304.264	14.307
3	42	298.53	15.0363
3	43	306.549	13.382
3	44	304.585	15.4533
3	45	299.201	13.815
3	46	301.808	14.5645
3	47	301.785	16.0852
3	48	303.942	15.5721
3	49	297.749	13.6412
3	50	306.768	13.3843
3	51	303.616	15.7541
3	52	297.235	16.3832
3	53	302.731	14.1574
3	54	302.883	13.9175
3	55	303.857	15.8391
3	56	299.224	16.1392
3	57	304.403	13.7727
3	58	300.084	15.5558
3	59	299.623	15.9773
3	60	302.437	13.6838
3	61	299.473	14.9458
3	62	304.397	13.0919
3	63	297.359	13.857
3	64	303.858	16.0763
3	65	301.989	15.1983
3	66	300.038	13.989
3	67	303.648	13.4174
3	68	297.417	15.7915
3	69	303.256	15.9378
3	70	298.029	14.1933
3	71	304.803	14.0961
3	72	298.637	16.3385
3	73	302.14	14.8976
3	74	296.755	16.0426
3	75	298.907	13.9642
3	76	302.831	15.5316
3	77	297.093	14.1603
3	78	300.22	14.6016
3	79	299.592	15.6325
3	80	303.261	16.1093
3	81	296.45	13.7494
3	82	299.413	13.6476
3	83	302.093	15.9757
3	84	296.937	16.1667
3	85	302	14.6955
3	86	301.082	14.1278
3	87	302.515	16.4869
3	88	298.559	16.3498
3	89	296.72	14.0432
3	90	299.278	15.3713
3	91	298.801	16.1063
3	92	302.281	14.3451
3	93	298.153	15.5615
3	94	302.781	13.8619
3	95	296.9	14.4127
3	96	296.185	16.4958
3	97	301.242	16.3779
3	98	293	14.4802
3	99	302.727	14.2654
3	100	297.541	16.6658
3	101	302.128	16.0261
3	102	298.344	14.753
3	103	303.438	14.5647
3	104	299.079	16.7189
3	105	296.306	14.7767
3	106	296.351	16.4971
3	107	297.971	14.1911
3	108	302.232	15.6736
3	109	295.76	14.714
3	110	299.965	14.7195
3	111	298.545	16.2936
3	112	296.274	16.1325
3	113	295.838	14.3023
3	114	298.443	14.1731
3	115	301.07	16.1121
3	116	296.73	16.7764
3	117	301.656	15.211
3	118	299.766	14.8189
3	119	297.57	16.5712
3	120	299.761	16.7369
3	121	297.495	14.5713
3	122	299.516	15.9
3	123	299.073	16.7141
3	124	302.942	15.303
3	125	298.288	16.2653
3	126	297.316	14.4328
3	127	297.144	14.9007
3	128	297.504	16.9676
3	129	301.056	16.7945
3	130	293.859	14.8503
3	131	302.626	14.5516
3	132	298.229	16.7185
3	133	298.517	16.6025
3	134	299.202	15.3077
3	135	298.469	14.8483
3	136	299.404	17.1498
3	137	296.399	15.1919
3	138	296.248	17.1157
3	139	298.475	14.6146
3	140	300.464	16.531
3	141	297.357	14.8469
3	142	296.244	15.3257
3	143	299.771	17.1171
3	144	298.561	17.007
3	145	297.173	15.0536
3	146	300.652	14.7569
3	147	302.322	16.8875
3	148	298.687	17.4167
3	149	297.924	15.6034
3	150	301.319	15.4249
3	151	299.829	16.9899
3	152	300.321	17.5108
3	153	297.871	15.0225
3	154	299.429	16.5719
3	155	299.504	17.0759
3	156	298.824	15.2435
3	157	298.643	16.2977
3	158	298.458	14.8438
3	159	297.954	15.4051
3	160	298.573	17.1571
3	161	301.007	16.9939
3	162	294.407	15.3766
3	163	298.391	15.0878
3	164	298.972	17.7553
3	165	299.555	17.1707
3	166	299.676	15.8003
3	167	299.293	15.3733
3	168	300.154	17.8083
3	169	297.483	16.1198
3	170	291.233	17.4939
3	171	298.95	15.3078
3	172	300.434	17.0358
3	173	296.91	15.8046
3	174	296.538	16.0576
3	175	298.683	17.2197
3	176	298.306	17.8692
3	177	291.662	16.0647
3	178	300.175	15.5448
3	179	299.13	17.3912
3	180	297.972	17.5902
3	181	297.561	16.015
3	182	300.492	15.9309
3	183	299.154	17.7216
3	184	299.386	18.2651
3	185	297.391	15.6875
3	186	293.253	17.1712
3	187	298.296	17.7611
3	188	299.208	15.7726
3	189	297.342	16.7416
3	190	297.907	15.5897
3	191	297.447	16.1247
3	192	298.535	17.9218
3	193	297.728	17.611
3	194	294.055	16.077
3	195	298.065	15.7814
3	196	298.665	18.0051
3	197	298.995	17.9388
3	198	299.735	16.6382
3	199	299.056	16.1449
3	200	296.702	18.7671
3	201	296.887	16.2561
3	202	290.746	18.0913
3	203	298.615	15.8434
3	204	300.913	17.7443
3	205	296.327	16.09
3	206	296.592	16.3697
3	207	295.15	18.0214
3	208	299.237	18.112
3	209	291.769	16.4461
3	210	300.034	16.0402
3	211	298.792	17.882
3	212	299.115	18.4069
3	213	298.545	16.5922
3	214	295.957	16.6575
3	215	299.362	17.5752
3	216	295.124	18.8778
3	217	297.542	16.496
3	218	294.162	18.2879
3	219	298.186	18.1764
3	220	300.937	16.5739
3	221	295.153	17.8765
3	222	299.048	16.2514
3	223	293.514	16.5367
3	224	300.025	18.6075
3	225	298.521	18.4407
3	226	295.337	16.504
3	227	299.462	16.4198
3	228	300.223	19.1237
3	229	299.841	18.5295
3	230	295.979	16.8235
3	231	300.198	16.51
3	232	295.831	18.7626
3	233	298.613	17.0644
3	234	291.67	19.2812
3	235	299.287	16.3046
3	236	301.801	18.284
3	237	291.85	17.1088
3	238	298.292	16.8904
3	239	296.292	18.423
3	240	300.451	18.8883
3	241	292.767	16.665
3	242	301.115	16.5711
3	243	299.814	18.1607
3	244	294.491	19.1034
3	245	299.803	17.0672
3	246	296.661	16.9453
3	247	300.167	18.5734
3	248	295.763	19.6252
3	249	297.734	17.0548
3	250	294.135	18.507
3	251	295.235	18.8872
3	252	301.249	17.2544
3	253	294.505	18.5525
3	254	298.528	16.6797
3	255	293.295	16.7906
3	256	299.935	18.8863
3	257	297.92	18.5261
3	258	289.676	17.0925
3	259	298.917	16.7339
3	260	294.393	19.1744
3	261	299.189	18.3874
3	262	295.605	17.2295
3	263	299.537	16.9046
3	264	295.415	19.0778
3	265	298.167	17.3264
3	266	291.181	18.9092
3	267	294.151	16.8764
3	268	301.432	18.7383
3	269	291.642	17.5029
3	270	298.088	17.5101
3	271	295.549	19.0041
3	272	300.541	19.5801
3	273	292.738	16.9385
3	274	296.462	17.0885
3	275	299.277	19.3026
3	276	294.813	19.3575
3	277	299.711	17.9807
3	278	296.99	17.4173
3	279	299.452	18.786
3	280	297.559	19.7779
3	281	294.309	17.6009
3	282	296.193	18.9467
3	283	296.523	19.3686
3	284	303.171	18.2394
3	285	295.662	18.6078
3	286	300.204	17.1996
3	287	294.574	17.2743
3	288	296.276	19.3793
3	289	299.067	19.0932
3	290	291.606	17.5868
3	291	300.369	17.2
3	292	296.082	19.6737
3	293	300.001	19.4694
3	294	297.18	17.6628
3	295	295.28	17.391
3	296	297.119	20.3196
3	297	293.373	17.5529
3	298	291.798	20.0494
3	299	294.995	17.3971
3	300	302.648	19.6542
3	301	292.109	17.9852
3	302	292.764	17.8086
3	303	295.807	19.8234
3	304	296.221	20.0885
3	305	292.782	17.5201
3	306	296.756	17.2498
3	307	299.502	19.4407
3	308	295.43	19.8874
3	309	299.848	18.4037
3	310	297.006	17.7921
3	311	296.728	19.6052
3	312	296.558	19.793
3	313	293.363	17.9733
3	314	294.884	19.0882
3	315	295.189	19.5412
3	316	302.015	18.782
3	317	294.263	19.0315
3	318	294.366	17.5175
3	319	293.355	17.6757
3	320	296.777	20.0172
3	321	298.382	19.9419
3	322	291.5	17.816
3	323	300.157	18.1862
3	324	296.315	20.1585
3	325	296.666	20.0646
3	326	297.257	18.4022
3	327	295.825	17.8998
3	328	297.232	20.5808
3	329	293.652	17.8396
3	330	291.936	19.9939
3	331	295.437	17.879
3	332	299.587	19.9305
3	333	292.242	18.4203
3	334	293.539	17.8562
3	335	295.088	19.6083
3	336	296.902	20.2696
3	337	292.973	17.5704
3	338	297.582	17.7362
3	339	296.333	19.7528
3	340	296.517	20.4899
3	341	296.1	18.2108
3	342	298.133	18.2248
3	343	297.636	20.1949
3	344	297.63	21.1727
3	345	294.155	18.1784
3	346	295.114	19.5526
3	347	295.582	20.4202
3	348	298.744	18.4859
3	349	294.078	19.1398
3	350	295.104	17.9879
3	351	294.138	18.1944
3	352	297.16	20.3795
3	353	298.028	20.26
3	354	291.23	18.0948
3	355	295.734	17.8879
3	356	296.625	20.6516
3	357	296.597	20.0362
3	358	297.213	18.5514
3	359	296.01	18.2806
3	360	297.368	20.6682
3	361	293.823	18.2919
3	362	287.127	21.7541
3	363	295.286	18.0665
3	364	300.239	20.4941
3	365	291.996	18.5283
3	366	293.93	18.1987
3	367	294.677	20.1065
3	368	297.624	21.1049
3	369	288.464	18.1271
3	370	298.19	18.3177
3	371	297.171	20.6087
3	372	296.731	20.7202
3	373	296.344	18.7162
3	374	297.723	18.9091
3	375	297.697	20.9028
3	376	292.824	21.0016
3	377	294.001	18.7773
3	378	290.59	19.8709
3	379	295.046	20.291
3	380	299.549	19.0438
3	381	294.634	19.7277
3	382	295.937	18.1101
3	383	289.244	18.1387
3	384	297.855	20.7829
3	385	295.921	20.6153
3	386	291.61	18.3288
3	387	296.679	18.4264
3	388	297.049	21.2663
3	389	297.169	20.5359
3	390	298.006	19.0295
3	391	296.514	18.6728
3	392	292.876	21.3386
3	393	294.131	18.3863
3	394	286.789	20.5313
3	395	295.317	18.5455
3	396	300.863	21.3851
3	397	292.116	18.8647
3	398	294.443	18.863
3	399	291.888	21.2501
3	400	297.856	21.5778
3	401	288.601	18.6541
3	402	298.265	18.8885
3	403	297.363	21.0172
3	404	296.502	21.6595
3	405	296.307	19.0205
3	406	292.699	18.911
3	407	297.135	20.9496
3	408	292.891	21.2942
3	409	293.616	18.651
3	410	290.204	20.9887
3	411	294.38	20.3341
3	412	299.162	19.4791
3	413	291.022	20.9653
3	414	295.131	18.5473
3	415	288.779	18.251
3	416	297.28	20.883
3	417	295.117	21.1374
3	418	291.106	18.5562
3	419	296.457	18.8143
3	420	291.516	21.3009
3	421	296.469	20.8743
3	422	292.283	18.8659
3	423	295.691	18.8855
3	424	292.507	21.3423
3	425	293.802	19.1271
3	426	286.864	21.1125
3	427	294.906	18.7584
3	428	300.467	21.7376
3	429	286.917	19.8752
3	430	294.43	19.0611
3	431	291.786	21.2355
3	432	297.876	21.9535
3	433	288.19	18.6686
3	434	297.887	19.2256
3	435	296.624	21.1083
3	436	291.619	21.727
3	437	296.458	19.3737
3	438	292.49	19.2472
3	439	297.031	21.5931
3	440	293.858	21.756
3	441	294.291	19.2019
3	442	290.838	21.0388
3	443	292.417	21.5536
3	444	300.979	20.3384
3	445	291.745	20.9037
3	446	296.202	19.2126
3	447	290.067	18.9375
3	448	299.022	22.0689
3	449	296.141	21.7221
3	450	286.974	19.2125
3	451	297.374	19.3953
3	452	292.821	21.6695
3	453	297.349	22.0976
3	454	293.875	19.4166
3	455	296.921	19.5738
3	456	293.239	21.8949
3	457	288.421	19.6411
3	458	287.029	21.9486
3	459	290.558	19.101
3	460	301.108	22.3858
3	461	286.952	19.6086
3	462	294.506	19.2569
3	463	291.9	21.5217
3	464	298.506	22.543
3	465	288.461	18.5312
3	466	294.19	19.0958
3	467	297.367	21.8378
3	468	292.789	22.0022
3	469	297.174	20.042
3	470	293.811	19.496
3	471	297.747	22.0373
3	472	294.048	22.7806
3	473	289.654	19.8796
3	474	291.006	21.6558
3	475	292.65	22.1817
3	476	300.306	21.3892
3	477	291.792	22.2819
3	478	296.215	19.5554
3	479	289.819	19.0556
3	480	294.738	22.2849
3	481	296.392	22.1672
3	482	287.586	19.1977
3	483	297.708	19.6086
3	484	293.511	22.4107
3	485	297.29	21.6543
3	486	294.291	19.413
3	487	291.534	19.2201
3	488	293.744	22.119
3	489	288.75	19.6496
3	490	286.644	21.2764
3	491	290.398	19.4467
3	492	301.129	23.3202
3	493	286.652	19.8022
3	494	289.144	19.3721
3	495	291.373	22.4209
3	496	294.043	22.8641
3	497	288.306	19.011
3	498	294.129	19.5146
3	499	296.726	22.2115
3	500	296.041	23.708
3	501	293.328	20.1454
3	502	296.293	20.4105
3	503	297.731	22.9237
3	504	296.815	23.3237
3	505	291.017	20.3718
3	506	292.901	22.1978
3	507	294.547	22.0524
3	508	301.443	22.7803
3	509	293.551	21.6804
3	510	293.035	19.7943
3	511	290.705	19.3165
3	512	297.63	23.8236
3	513	297.838	22.4466
3	514	288.217	19.4779
3	515	298.817	20.8815
3	516	295.99	23.2598
3	517	296.124	22.6695
3	518	295.24	20.3726
3	519	294.008	20.0921
3	520	297.397	23.4517
3	521	291.166	19.9284
3	522	289.823	23.3824
3	523	293.791	20.4479
3	524	301.512	23.5708
3	525	289.698	20.585
3	526	292.527	20.1186
3	527	294.894	21.945
3	528	298.422	24.4849
3	529	290.527	19.68
3	530	297.998	20.9107
3	531	297.539	22.4533
3	532	296.691	24.0663
3	533	294.579	20.2378
3	534	296.901	21.1814
3	535	298.24	23.8086
3	536	297.458	24.0813
3	537	292.065	20.8997
3	538	288.245	23.2831
3	539	294.712	23.0853
3	540	298.768	21.3657
3	541	293.981	22.6691
3	542	294.546	20.2602
3	543	291.435	19.6673
3	544	298.339	24.4255
3	545	298.424	23.2453
3	546	288.868	20.0791
3	547	295.519	20.6658
3	548	296.695	24.9273
3	549	296.925	23.1021
3	550	295.6	20.9302
3	551	294.203	20.5915
3	552	297.035	24.5931
3	553	290.901	20.2899
3	554	284.217	24.4384
3	555	293.395	20.6915
3	556	301.609	24.2742
3	557	289.279	20.4877
3	558	292.425	20.5442
3	559	293.856	23.4182
3	560	298.746	25.6263
3	561	285.921	20.0715
3	562	298.107	21.0046
3	563	297.553	23.4664
3	564	296.896	24.1126
3	565	294.742	20.7152
3	566	296.766	21.2107
3	567	297.818	23.4427
3	568	293.531	24.9694
3	569	291.846	20.8878
3	570	288.641	23.6687
3	571	294.868	23.6318
3	572	298.618	22.2352
3	573	293.384	22.7087
3	574	294.515	20.6684
3	575	286.573	19.9682
3	576	297.992	24.627
3	577	295.431	23.8023
3	578	288.743	20.3751
3	579	295.659	20.9928
3	580	296.704	24.5247
3	581	296.934	23.1854
3	582	290.511	20.3787
3	583	294.895	21.1868
3	584	292.396	24.1289
3	585	291.018	20.2386
3	586	284.205	24.8927
3	587	293.204	21.0752
3	588	301.636	24.7884
3	589	289.126	21.1495
3	590	292.569	20.9311
3	591	291.054	23.3647
3	592	298.372	25.9403
3	593	285.621	20.8315
3	594	297.358	21.7058
3	595	296.691	23.8704
3	596	295.787	25.3781
3	597	294.271	21.1197
3	598	290.764	21.4077
3	599	297.186	24.685
3	600	292.741	25.2044
3	601	291.354	21.1294
3	602	287.69	24.0422
3	603	294.158	23.3857
3	604	298.61	22.9865
3	605	290.63	23.7009
3	606	294.762	21.0483
3	607	286.3	20.2166
3	608	298.476	25.6256
3	609	295.443	23.6518
3	610	289.08	20.7983
3	611	296.112	21.7635
3	612	291.922	24.2207
3	613	296.746	23.867
3	614	291.107	20.5609
3	615	294.872	22.1761
3	616	292.948	24.9985
3	617	290.763	20.8841
3	618	284.383	24.5391
3	619	288.88	21.7513
3	620	301.522	25.8256
3	621	285.197	22.6254
3	622	292.658	21.0377
3	623	291.652	23.9367
3	624	298.208	26.0228
3	625	286.021	20.9268
3	626	298.173	23.3697
3	627	297.041	23.4927
3	628	291.992	24.6194
3	629	294.525	21.5718
3	630	292.492	23.0027
3	631	297.764	24.2771
3	632	292.816	24.2211
3	633	291.755	22.6748
3	634	287.36	24.6978
3	635	290.91	23.8945
3	636	298.514	23.0465
3	637	290.357	23.06
3	638	295.019	22.7244
3	639	286.402	19.8685
3	640	298.676	25.5304
3	641	295.281	23.6349
3	642	284.402	20.9958
3	643	296.88	23.3684
3	644	292.023	25.3862
3	645	296.376	24.1147
3	646	291.214	20.7856
3	647	295.915	24.4943
3	648	292.394	24.3702
3	649	285.774	21.4757
3	650	283.5	23.7276
3	651	289.413	23.9633
3	652	301.055	25.134
3	653	285.142	24.2909
3	654	292.418	21.2173
3	655	290.391	23.2455
3	656	294.755	25.2497
3	657	285.914	20.2269
3	658	295.511	24.8746
3	659	296.551	24.0077
3	660	293.419	24.5023
3	661	295.38	22.2049
3	662	294.772	24.7189
3	663	294.975	24.9086
3	664	294.502	24.8434
3	665	290.045	25.7442
3	666	288.942	24.107
3	667	291.451	22.8623
3	668	298.618	24.7795
3	669	291.324	22.8595
3	670	298.622	26.562
3	671	288.238	20.097
3	672	296.377	24.5438
3	673	296.748	23.8287
3	674	286.986	20.5151
3	675	300.712	27.6546
3	676	294.283	24.3704
3	677	297.144	23.4402
3	678	292.933	21.7277
3	679	294.734	27.8256
3	680	295.259	24.9069
3	681	288.637	21.2858
3	682	285.461	24.045
3	683	295.483	28.1894
3	684	302.237	25.7671
3	685	290.428	27.6206
3	686	289.964	20.7407
3	687	292.148	23.8096
3	688	297.533	25.3567
3	689	287.406	20.2066
3	690	301.227	29.6728
3	691	296.936	23.3139
3	692	294.49	24.0177
3	693	291.354	20.8626
3	694	298.661	29.4523
3	695	294.675	23.1545
3	696	295.217	25.1494
3	697	294.56	30.2833
3	698	289.375	24.9409
3	699	291.656	23.4304
3	700	296.887	23.0496
3	701	292.233	22.7492
3	702	299.35	30.9971
3	703	289.911	21.6035
3	704	298.627	24.4006
3	705	297.337	24.4378
3	706	288.721	22.0661
3	707	305.318	32.8136
3	708	295.726	24.6439
3	709	295.504	23.2996
3	710	293.857	22.7877
3	711	300.926	35.3014
3	712	295.967	24.6358
3	713	290.183	20.9492
3	714	288.585	29.2807
3	715	300.084	32.561
3	716	300.214	24.1194
3	717	295.899	33.9086
3	718	291.83	21.6219
3	719	292.602	24.6314
3	720	298.166	24.276
3	721	289.919	19.883
3	722	306.568	35.37
3	723	295.213	22.4981
3	724	296.366	24.0782
3	725	292.818	21.7049
3	726	303.542	35.3385
3	727	295.807	23.5633
3	728	297.38	24.9599
3	729	300.454	34.5553
3	730	287.532	24.5186
3	731	293.92	22.278
3	732	298.094	23.9905
3	733	293.002	19.9476
3	734	305.058	35.8547
3	735	291.065	19.9289
3	736	299.913	24.8443
3	737	295.461	25.7816
3	738	292.472	20.0842
3	739	308.202	38.2335
3	740	296.696	22.6524
3	741	295.351	21.0148
3	742	292.638	21.7693
3	743	306.381	40.8545
3	744	292.028	22.9474
3	745	291.793	20.8724
3	746	280.796	22.5746
3	747	303.781	37.7291
3	748	300.906	23.0211
3	749	304.398	37.219
3	750	292.665	22.9595
3	751	293.304	22.5532
3	752	298.536	26.5739
3	753	284.372	17.7559
3	754	312.029	41.9646
3	755	293.244	19.0741
3	756	295.175	21.9915
3	757	294.856	21.8737
3	758	299.785	36.0008
3	759	292.291	20.2097
3	760	292.92	25.0486
3	761	316.532	33.7081
3	762	281.65	18.1087
3	763	289.097	19.1557
3	764	294.995	23.6117
3	765	292.551	22.4929
3	766	303.99	37.2126
3	767	285.028	17.2337
3	768	297.027	25.1376
3	769	288.289	19.7473
3	770	284.077	22.8639
3	771	324.351	47.1456
3	772	299.405	25.9741
3	773	298.486	28.1332
3	774	289.293	19.9159
3	775	316.915	43.5786
3	776	290.475	21.8148
3	777	284.865	21.7386
3	778	279.111	18.7046
3	779	306.294	40.8056
3	780	301.855	34.9868
3	781	326.709	28.1034
3	782	297.5	22.692
3	783	304.2	40.5766
3	784	303.5	22.4179
3	785	276.833	12.7345
3	786	316.737	48.0299
3	787	292.88	17.7114
3	788	288.286	9.5169
3	789	294.467	18.7997
3	790	306.25	44.615
3	791	303.083	20.2191
3	792	290.941	24.8004
3	793	324.949	18.8655
3	795	281.5	2.12132
3	796	296.8	25.2169
3	797	289.167	7.73089
3	798	306.5	7.77817
3	800	294.8	12.7161
3	801	269	17.9072
3	802	275	1.41421
3	803	290	NA
3	806	272.667	12.2202
3	807	337.6	20.5283
3	808	280	22.5167
3	809	286	NA
3	811	255	NA
3	812	280	41.0122
3	813	338.52	32.9243
3	814	270	NA
3	821	290.6	14.0107
3	823	293	NA
3	824	254	NA
3	825	327.941	18.5798
3	828	319.5	12.0208
3	839	344.5	31.1288
3	845	335.5	39.6443
3	857	328.667	3.05505
3	877	351	NA
3	889	325	NA
4	7	400.282	22.4683
4	8	398.616	18.5183
4	9	401.567	18.192
4	10	401.043	18.2475
4	11	405.747	17.2416
4	12	401.933	18.9381
4	13	405.166	17.3778
4	14	399.731	17.6268
4	15	401.684	21.1098
4	16	402.667	18.5922
4	17	397.737	17.9257
4	18	405.656	17.6358
4	19	403.698	21.0075
4	20	405.256	20.0993
4	21	402.541	18.0177
4	22	408.065	18.9613
4	23	405.19	21.1064
4	24	400.106	20.5746
4	25	406.554	16.4538
4	26	398.504	20.6806
4	27	407.223	21.324
4	28	402.979	17.3076
4	29	407.086	19.9812
4	30	404.793	16.927
4	31	397.191	16.9475
4	32	405.344	19.7222
4	33	403.934	19.8126
4	34	402.767	17.2663
4	35	404.484	16.9517
4	36	405.409	19.9278
4	37	404.58	20.2937
4	38	397.37	17.2954
4	39	405.293	16.7407
4	40	400.04	20.3295
4	41	403.384	17.3119
4	42	400.097	21.3784
4	43	407.027	16.6088
4	44	404.386	19.0954
4	45	397.957	16.2417
4	46	402.27	16.8729
4	47	401.8	19.503
4	48	405.435	18.4341
4	49	398.302	17.0543
4	50	406.528	16.1593
4	51	403.957	19.4753
4	52	397.328	19.2866
4	53	402.019	16.6606
4	54	401.373	16.6173
4	55	404.064	20.346
4	56	399.836	19.518
4	57	405.23	16.1977
4	58	397.013	18.5408
4	59	399.962	20.4644
4	60	401.777	16.4848
4	61	400.194	18.3047
4	62	402.881	16.008
4	63	395.405	16.9276
4	64	405.07	19.7888
4	65	402.524	19.4858
4	66	400.415	16.8787
4	67	402.678	16.2367
4	68	397.152	19.3873
4	69	402.602	19.8676
4	70	395.942	17.1502
4	71	403.649	16.9919
4	72	398.911	20.1358
4	73	399.959	17.3597
4	74	397.542	20.1806
4	75	397.456	17.7757
4	76	402.167	19.1403
4	77	395.239	17.0908
4	78	398.994	17.3227
4	79	399.357	18.3295
4	80	404.076	19.1652
4	81	395.675	17.0038
4	82	397.904	16.5541
4	83	402.285	19.915
4	84	396.599	19.8176
4	85	400.315	17.4619
4	86	399.539	17.177
4	87	402.454	19.9346
4	88	398.681	20.0601
4	89	395.457	16.8388
4	90	396.359	21.8735
4	91	399.328	20.3445
4	92	400.436	16.9584
4	93	398.865	19.2143
4	94	400.537	16.8585
4	95	394.52	17.5898
4	96	396.907	19.6029
4	97	401.36	20.3215
4	98	391.268	17.8835
4	99	400.924	17.1757
4	100	397.236	19.616
4	101	401.334	20.2398
4	102	395.481	17.634
4	103	401.84	17.6844
4	104	399.011	20.17
4	105	393.061	17.8882
4	106	397.411	22.0012
4	107	396.248	17.8807
4	108	401.176	19.4444
4	109	393.15	18.1729
4	110	398.21	17.5115
4	111	397.921	18.8335
4	112	396.128	19.4399
4	113	394.694	17.1959
4	114	396.236	17.1009
4	115	400.882	19.4901
4	116	396.221	20.5139
4	117	398.787	18.0594
4	118	397.39	17.7852
4	119	396.752	20.0913
4	120	399.494	20.289
4	121	395.789	18.0531
4	122	396.781	20.2567
4	123	399.406	21.7319
4	124	400.268	18.1862
4	125	398.621	18.962
4	126	394.342	18.167
4	127	394.021	18.0706
4	128	397.776	20.3353
4	129	401.365	20.467
4	130	392.4	18.1088
4	131	400.484	17.5561
4	132	397.438	20.171
4	133	397.159	20.697
4	134	395.504	18.1595
4	135	395.482	18.095
4	136	399.008	21.4328
4	137	392.261	18.1597
4	138	396.952	20.1187
4	139	396.22	18.0907
4	140	399.049	20.5234
4	141	394.845	18.286
4	142	393.492	18.2588
4	143	399.518	19.7566
4	144	397.969	20.7387
4	145	396.058	17.969
4	146	398.1	18.3606
4	147	402.135	21.3472
4	148	397.736	22.0589
4	149	394.602	18.5954
4	150	398.501	18.55
4	151	398.757	21.6736
4	152	399.635	21.2269
4	153	396.254	18.6017
4	154	396.508	20.5182
4	155	399.467	21.2698
4	156	395.261	18.1383
4	157	398.937	19.461
4	158	395.095	18.4158
4	159	394.411	18.5361
4	160	398.707	21.1604
4	161	401.055	20.8538
4	162	392.247	18.2925
4	163	395.338	18.5152
4	164	398.39	21.1998
4	165	398.137	21.0574
4	166	396.126	18.9992
4	167	396.615	19.1869
4	168	399.697	21.5566
4	169	393.315	19.158
4	170	392.572	22.436
4	171	396.782	18.9513
4	172	398.86	20.7744
4	173	394.2	19.115
4	174	393.635	19.0136
4	175	398.613	20.7332
4	176	397.921	21.5291
4	177	389.297	19.2214
4	178	397.467	18.8716
4	179	398.854	21.5418
4	180	397.247	21.4162
4	181	394.559	19.5758
4	182	398.053	19.2331
4	183	398.335	22.0043
4	184	398.872	21.9793
4	185	395.76	19.2656
4	186	390.05	21.7922
4	187	398.787	22.268
4	188	395.774	18.9192
4	189	398.248	20.7877
4	190	394.905	19.65
4	191	393.948	18.9794
4	192	398.569	21.8836
4	193	397.801	21.7684
4	194	391.898	18.9833
4	195	395.355	19.2723
4	196	398.351	22.2518
4	197	397.766	21.9722
4	198	396.235	19.6034
4	199	396.342	19.7617
4	200	395.994	22.4143
4	201	392.615	19.3864
4	202	392.774	23.2037
4	203	396.472	19.1419
4	204	399.199	21.0369
4	205	393.558	20.2363
4	206	393.435	19.5034
4	207	395.123	21.3747
4	208	398.755	21.6949
4	209	389.316	18.6174
4	210	397.321	19.4057
4	211	398.619	21.8935
4	212	398.361	22.751
4	213	395.17	19.5051
4	214	392.922	19.9025
4	215	398.79	22.5171
4	216	394.624	23.0057
4	217	396.263	19.4423
4	218	391.393	21.6692
4	219	399.065	21.5155
4	220	396.905	19.8922
4	221	395.305	21.5709
4	222	395.968	19.7956
4	223	390.514	19.9068
4	224	399.905	22.5437
4	225	398.7	22.4258
4	226	393.604	19.5884
4	227	397.128	19.8244
4	228	399.598	23.5284
4	229	398.79	22.4533
4	230	392.299	20.1398
4	231	397.667	20.3553
4	232	395.488	22.3687
4	233	394.483	20.1734
4	234	393.579	22.9786
4	235	397.502	19.9939
4	236	400.387	21.835
4	237	389.406	20.3497
4	238	395.364	19.9376
4	239	396.365	21.5908
4	240	399.965	22.9033
4	241	391.043	19.5926
4	242	398.646	20.0416
4	243	399.709	22.6349
4	244	394.025	22.485
4	245	396.417	20.2283
4	246	393.992	20.9231
4	247	399.384	23.4262
4	248	395.568	23.5034
4	249	396.901	20.7961
4	250	392.144	23.5614
4	251	396.035	23.4756
4	252	397.021	20.4273
4	253	395.378	22.1005
4	254	395.614	20.2302
4	255	389.89	20.0176
4	256	399.925	23.4669
4	257	398.187	22.141
4	258	387.325	19.7305
4	259	396.578	20.4612
4	260	394.044	23.4035
4	261	398.097	22.4443
4	262	391.885	20.5222
4	263	396.887	20.5528
4	264	395.414	22.9648
4	265	393.749	19.8194
4	266	393.32	22.8299
4	267	392.171	20.0736
4	268	399.874	22.656
4	269	389.189	21.1047
4	270	394.943	20.6021
4	271	396.155	22.2008
4	272	400.21	24.0361
4	273	391.174	20.0303
4	274	394.229	20.5336
4	275	399.352	22.743
4	276	394.96	24.5182
4	277	395.999	20.8231
4	278	394.797	21.0646
4	279	398.833	23.0368
4	280	397.043	23.5596
4	281	393.363	20.7675
4	282	394.165	22.9166
4	283	397.569	24.2825
4	284	398.614	21.2486
4	285	396.311	21.7796
4	286	397.496	20.9467
4	287	391.607	20.3501
4	288	396.712	24.1229
4	289	399.427	23.3104
4	290	389.926	20.6252
4	291	397.867	21.0179
4	292	395.781	23.2077
4	293	398.868	23.6535
4	294	393.012	20.7976
4	295	392.85	21.4812
4	296	396.986	23.7368
4	297	389.802	21.1022
4	298	394.105	23.676
4	299	393.208	21.1105
4	300	400.489	23.1054
4	301	390.433	22.15
4	302	389.755	20.7568
4	303	395.851	23.2903
4	304	395.913	23.8088
4	305	391.225	20.4626
4	306	393.98	20.4251
4	307	399.177	23.774
4	308	394.708	23.7538
4	309	395.881	21.177
4	310	394.861	21.7369
4	311	395.75	23.2041
4	312	396.265	23.7461
4	313	392.434	21.1891
4	314	393.134	23.2273
4	315	396.294	24.8597
4	316	397.589	21.8468
4	317	394.667	22.0948
4	318	391.975	20.6541
4	319	390.308	20.9433
4	320	396.949	23.961
4	321	398.4	24.4164
4	322	389.725	20.6462
4	323	397.482	21.4427
4	324	395.727	24.2746
4	325	395.598	24.3143
4	326	393.374	21.4551
4	327	393.617	21.1027
4	328	396.765	24.3199
4	329	389.878	21.1564
4	330	394.678	26.0469
4	331	393.711	21.0888
4	332	397.574	23.6319
4	333	391.191	22.062
4	334	390.577	20.6065
4	335	395.527	22.6327
4	336	396.365	23.9001
4	337	391.976	21.0531
4	338	395.166	21.6036
4	339	396.212	23.8789
4	340	395.726	24.0728
4	341	392.482	21.2518
4	342	395.648	22.2254
4	343	397.027	24.3425
4	344	397.219	25.3246
4	345	393.255	21.09
4	346	394.027	23.6417
4	347	396.51	25.1313
4	348	394.189	21.4204
4	349	394.83	23.1352
4	350	392.211	21.3727
4	351	390.872	21.043
4	352	397.413	24.8243
4	353	397.926	24.029
4	354	389.964	20.9239
4	355	393.427	20.9588
4	356	396.096	24.7475
4	357	395.534	23.7598
4	358	393.108	21.9212
4	359	393.767	21.4725
4	360	396.929	24.7384
4	361	389.688	20.944
4	362	391.017	27.9866
4	363	393.68	21.1433
4	364	397.823	24.0418
4	365	390.81	21.1397
4	366	390.781	20.9016
4	367	394.701	22.0719
4	368	397.212	24.582
4	369	386.657	20.4426
4	370	395.55	21.7535
4	371	396.904	24.3449
4	372	396.031	24.3798
4	373	392.338	21.1466
4	374	395.547	22.2533
4	375	396.43	24.3652
4	376	393.199	25.1615
4	377	393.437	21.5313
4	378	389.19	25.4981
4	379	396.384	25.5707
4	380	394.719	22.1017
4	381	394.915	22.8048
4	382	393.452	21.4061
4	383	386.797	21.7966
4	384	397.767	25.2329
4	385	396.253	25.2167
4	386	390.108	21.04
4	387	394.07	21.6924
4	388	396.534	24.5526
4	389	396.17	24.6556
4	390	393.976	22.0148
4	391	394.178	21.743
4	392	392.996	25.289
4	393	390.719	21.3218
4	394	390.112	25.7226
4	395	393.654	21.62
4	396	398.461	24.8274
4	397	390.364	21.2958
4	398	391.185	21.425
4	399	392.444	23.9429
4	400	397.032	24.8732
4	401	387.2	21.2426
4	402	395.299	21.9149
4	403	396.458	24.7225
4	404	396.11	25.6316
4	405	392.531	21.204
4	406	390.256	21.8162
4	407	395.929	25.7199
4	408	392.889	25.6243
4	409	392.992	21.344
4	410	389.672	24.8818
4	411	395.475	25.1056
4	412	394.374	21.4564
4	413	391.718	23.7031
4	414	392.517	21.4677
4	415	385.796	20.2409
4	416	397.329	25.7742
4	417	395.37	24.1742
4	418	389.711	21.3182
4	419	394.02	21.8986
4	420	391.883	25.4785
4	421	395.589	24.9678
4	422	388.811	21.1037
4	423	393.785	22.0014
4	424	393.022	25.1677
4	425	390.653	22.1708
4	426	389.769	26.8037
4	427	393.718	21.6751
4	428	397.971	25.1284
4	429	386.324	23.0948
4	430	391.717	21.301
4	431	392.598	24.8105
4	432	397.05	24.9355
4	433	386.835	21.4526
4	434	395.498	22.9001
4	435	396.373	25.1213
4	436	391.705	25.5821
4	437	392.663	21.2855
4	438	390.855	22.2516
4	439	396.13	25.9275
4	440	393.832	25.4285
4	441	393.76	22.4079
4	442	390.528	25.1217
4	443	394	26.6901
4	444	395.939	22.6107
4	445	392.356	24.4209
4	446	393.367	22.3804
4	447	387.24	21.6498
4	448	398.475	27.2222
4	449	396.213	25.1289
4	450	385.867	21.4915
4	451	394.86	22.2015
4	452	392.705	25.6763
4	453	395.874	24.8609
4	454	390.08	22.0097
4	455	394.924	22.5722
4	456	394.163	26.3
4	457	386.156	22.1801
4	458	390.653	29.151
4	459	389.089	22.2004
4	460	398.151	25.558
4	461	385.552	21.5403
4	462	391.497	21.6044
4	463	392.615	24.4275
4	464	397.803	26.3805
4	465	387.262	21.6582
4	466	391.535	22.0456
4	467	396.647	25.671
4	468	392.468	25.9515
4	469	393.125	22.1694
4	470	392.277	22.4736
4	471	396.643	25.9328
4	472	394.144	25.3694
4	473	389.35	22.4464
4	474	390.627	25.1118
4	475	394.732	27.8659
4	476	395.133	23.1103
4	477	392.408	24.503
4	478	393.503	22.356
4	479	387.538	21.4651
4	480	394.981	26.8896
4	481	396.74	25.907
4	482	386.276	21.7601
4	483	395.486	22.7059
4	484	393.411	26.4795
4	485	395.946	25.3058
4	486	390.849	22.1161
4	487	389.955	22.642
4	488	394.498	27.4643
4	489	386.25	22.3217
4	490	390.71	27.5849
4	491	389.463	22.8801
4	492	398.134	26.5158
4	493	385.925	22.5486
4	494	386.416	21.315
4	495	392.287	25.0956
4	496	393.722	26.7023
4	497	387.648	22.1368
4	498	391.653	22.1217
4	499	396.113	26.5868
4	500	395.831	27.9483
4	501	389.026	21.358
4	502	393.926	23.2272
4	503	397.814	26.558
4	504	396.975	27.0373
4	505	390.218	21.9852
4	506	392.172	26.3689
4	507	397.434	26.9515
4	508	395.277	24.0574
4	509	395.246	24.1151
4	510	390.348	21.2281
4	511	387.688	20.8854
4	512	397.728	27.0723
4	513	398.948	25.7014
4	514	387.118	21.7325
4	515	395.488	22.6862
4	516	396.087	26.224
4	517	396.673	26.1338
4	518	391.633	22.8079
4	519	392.261	22.2862
4	520	397.724	27.4951
4	521	387.976	21.3016
4	522	393.827	32.3114
4	523	391.81	21.9367
4	524	399.377	27.3927
4	525	388.49	21.8383
4	526	389.162	21.1997
4	527	396.97	25.6943
4	528	398.014	27.1504
4	529	390.259	22.8579
4	530	394.996	23.1587
4	531	398.196	26.8972
4	532	396.517	26.9772
4	533	390.294	21.836
4	534	394.796	23.7127
4	535	397.766	26.9629
4	536	397.846	28.0194
4	537	392.129	23.0956
4	538	388.737	26.9664
4	539	396.97	27.3923
4	540	392.75	22.841
4	541	395.551	24.5402
4	542	391.79	21.844
4	543	388.663	20.9641
4	544	398.216	28.2424
4	545	399.192	26.9234
4	546	387.762	22.3606
4	547	391.963	22.6059
4	548	396.378	27.2816
4	549	396.894	27.5922
4	550	390.677	22.3376
4	551	391.513	22.7951
4	552	397.45	27.6104
4	553	387.524	22.3068
4	554	389.939	30.5461
4	555	392.079	22.1774
4	556	399.342	27.6266
4	557	389.096	22.8571
4	558	388.842	21.5527
4	559	395.112	24.3403
4	560	398.506	27.4816
4	561	385.971	23.6281
4	562	394.657	22.9945
4	563	397.936	26.8742
4	564	396.288	27.3403
4	565	390.62	21.6595
4	566	394.086	23.734
4	567	397.644	27.7776
4	568	394.137	28.4485
4	569	391.343	22.5202
4	570	389.59	27.1864
4	571	397.536	27.9621
4	572	393.019	23.419
4	573	395.647	26.0433
4	574	392.141	22.6957
4	575	385.723	22.1247
4	576	398.302	28.1867
4	577	397.176	27.9023
4	578	388.314	22.9938
4	579	393.022	23.0177
4	580	396.656	27.4707
4	581	397.253	28.0745
4	582	387.394	23.0618
4	583	392.609	23.0576
4	584	393.752	28.1316
4	585	388.116	22.3269
4	586	389.779	30.6007
4	587	392.104	22.2722
4	588	399.538	28.2919
4	589	388.62	23.0909
4	590	389.724	22.0831
4	591	393.148	27.2704
4	592	398.173	28.0447
4	593	384.973	21.535
4	594	394.324	23.4633
4	595	397.331	27.515
4	596	395.48	27.8374
4	597	389.435	21.6753
4	598	389.338	23.9219
4	599	396.651	27.1968
4	600	393.32	28.1035
4	601	391.134	22.708
4	602	388.564	27.9681
4	603	396.621	27.9396
4	604	392.953	23.7134
4	605	392.184	25.1441
4	606	391.552	22.4736
4	607	385.639	22.2473
4	608	398.489	28.691
4	609	396.901	27.5353
4	610	387.842	22.3898
4	611	393.212	23.6068
4	612	392.883	28.0505
4	613	396.535	27.1202
4	614	388	22.5811
4	615	392.3	24.1017
4	616	394.02	29.2615
4	617	388.759	22.259
4	618	390.12	30.7225
4	619	387.508	22.4265
4	620	398.778	28.5733
4	621	385.152	26.6095
4	622	389.302	21.6345
4	623	393.932	26.9696
4	624	398.433	29.3135
4	625	385.635	21.6399
4	626	394.556	25.3488
4	627	397.683	26.8684
4	628	392.459	27.7489
4	629	390.232	22.2488
4	630	390.565	24.7922
4	631	397.317	27.2645
4	632	394.35	28.2384
4	633	391.674	24.6214
4	634	389.369	27.5742
4	635	394.439	29.5986
4	636	392.743	24.0012
4	637	391.951	26.5834
4	638	392.398	24.5141
4	639	385.001	20.8489
4	640	398.945	29.8905
4	641	396.778	27.2075
4	642	383.972	22.6539
4	643	394.391	24.8664
4	644	392.899	28.0313
4	645	396.183	28.0231
4	646	387.268	22.2602
4	647	393.306	25.9433
4	648	393.56	28.7576
4	649	384.376	24.36
4	650	389.95	31.9803
4	651	387.561	23.8995
4	652	398.527	28.2252
4	653	386.616	26.0727
4	654	389.503	22.53
4	655	392.716	27.1221
4	656	395.379	27.9063
4	657	385.668	21.9621
4	658	392.81	26.9129
4	659	396.697	27.5113
4	660	394.322	28.9894
4	661	390.667	22.4148
4	662	393.381	27.5743
4	663	395.045	27.7409
4	664	395.417	27.308
4	665	389.493	27.5147
4	666	390.296	26.1206
4	667	395.03	28.3474
4	668	392.47	24.4814
4	669	393.001	25.8105
4	670	394.962	27.7236
4	671	387.063	20.4293
4	672	397.15	27.333
4	673	398.022	27.7497
4	674	386.846	21.6519
4	675	397.518	28.2883
4	676	395.295	28.1737
4	677	397.448	27.0157
4	678	389.677	23.7525
4	679	392.991	29.3366
4	680	395.903	27.8517
4	681	387.443	24.6142
4	682	390.794	31.2945
4	683	393.257	28.4406
4	684	398.697	27.593
4	685	390.661	29.9921
4	686	387.542	22.3512
4	687	394.348	25.5581
4	688	397.387	27.9497
4	689	387.567	23.2246
4	690	396.664	30.8183
4	691	396.852	26.3325
4	692	395.598	28.0854
4	693	387.456	22.5739
4	694	396.864	29.3736
4	695	395.749	28.5779
4	696	396.685	28.2792
4	697	392.592	29.2263
4	698	389.694	25.2637
4	699	394.876	27.255
4	700	391.566	23.9479
4	701	393.738	23.576
4	702	397.402	33.851
4	703	389.521	21.6659
4	704	398.756	28.0764
4	705	397.508	27.8778
4	706	387.804	24.1108
4	707	400.31	33.1466
4	708	397.06	28.9239
4	709	397.278	28.1387
4	710	390.88	25.0149
4	711	399.812	39.2016
4	712	397.021	29.1341
4	713	388.125	22.6171
4	714	394.613	43.0097
4	715	398.013	33.3471
4	716	397.81	27.4847
4	717	393.312	31.3987
4	718	386.588	20.8915
4	719	395.803	23.3807
4	720	399.551	30.1585
4	721	389.126	20.2137
4	722	401.8	35.7529
4	723	394.679	25.8527
4	724	397.286	29.1592
4	725	389.187	25.4534
4	726	399.359	31.0912
4	727	394.12	25.0963
4	728	399.239	26.8552
4	729	395.643	38.3106
4	730	391.819	27.4079
4	731	396.364	24.1335
4	732	391.085	24.9863
4	733	393.111	23.1487
4	734	403.234	36.0286
4	735	390.294	19.9214
4	736	401.071	27.1482
4	737	395.947	24.2314
4	738	391.165	18.1697
4	739	408.425	40.1302
4	740	397.423	28.2813
4	741	394.293	27.1076
4	742	388.961	25.2625
4	743	399.07	33.7047
4	744	393.49	28.5004
4	745	386.141	19.4182
4	746	383.583	27.2096
4	747	408.167	45.7403
4	748	396.724	25.3209
4	749	387.158	36.0252
4	750	388.393	21.3294
4	751	398.614	24.5726
4	752	400.3	26.8124
4	753	396.083	51.8397
4	754	402.886	36.4726
4	755	396.467	30.3827
4	756	397.464	29.2202
4	757	378.943	21.789
4	758	395.935	24.0402
4	759	389.173	23.9644
4	760	385.275	21.9712
4	761	379.821	21.6995
4	762	400.5	10.9805
4	763	394.367	27.9192
4	764	387.635	20.4805
4	765	395.75	20.7567
4	766	394.227	22.9595
4	767	378	1.41421
4	768	400.386	35.2349
4	769	389.378	25.3304
4	770	387	NA
4	771	411.5	39.0211
4	772	383.25	22.5394
4	773	392.091	22.8388
4	774	396	30.3809
4	775	382.34	17.2592
4	776	404.5	18.7617
4	777	387.889	17.5103
4	778	381.5	37.4767
4	779	389	NA
4	780	397.562	23.4321
4	781	384.539	20.0828
4	782	365	8.48528
4	783	406.333	4.16333
4	784	448.75	154.457
4	786	408	NA
4	787	386.25	23.429
4	788	414	24
4	789	374.75	22.4704
4	791	418	32.5269
4	793	374.154	27.1412
4	796	393.5	30.4056
4	797	403	60.8112
4	798	410	NA
4	801	395.667	11.9304
4	805	376	19.3132
4	806	387	NA
4	807	383.538	21.0561
4	812	435	NA
4	813	386.1	19.4251
4	825	374.839	20.2782
4	839	374.333	12.242
4	845	384.167	17.3599
4	857	359.833	8.95358
4	877	389	NA
4	889	361	NA
5	7	500.852	24.6432
5	8	498.505	20.9323
5	9	501.867	23.0226
5	10	500.692	20.5336
5	11	501.281	21.216
5	12	502.053	22.2247
5	13	500.633	19.8468
5	14	499.66	21.7605
5	15	501.799	22.8669
5	16	502.124	20.9037
5	17	495.217	20.9416
5	18	501.69	21.1452
5	19	502.603	22.9244
5	20	503.451	21.9415
5	21	500.678	21.6996
5	22	501.999	23.1457
5	23	502.387	22.597
5	24	499.455	21.2695
5	25	501.524	20.856
5	26	498.259	22.1137
5	27	503.572	22.1265
5	28	500.686	21.3136
5	29	502.964	22.2676
5	30	500.156	20.893
5	31	494.884	21.0852
5	32	503.718	21.1012
5	33	501.997	21.2702
5	34	499.49	21.6075
5	35	499.243	20.809
5	36	503.714	21.7425
5	37	502.145	22.0709
5	38	495.645	20.1221
5	39	500.474	20.9025
5	40	499.4	20.6168
5	41	500.467	21.2753
5	42	498.782	21.2711
5	43	501.225	21.5591
5	44	501.441	21.4141
5	45	494.659	20.5312
5	46	497.482	21.6463
5	47	499.84	21.3354
5	48	504.044	20.7252
5	49	495.035	20.6644
5	50	500.438	20.1568
5	51	501.266	20.8464
5	52	496.253	20.6376
5	53	498.949	20.3661
5	54	495.707	20.2913
5	55	501.316	21.6412
5	56	498.686	20.6445
5	57	499.5	19.54
5	58	495.172	20.8868
5	59	497.651	21.7039
5	60	499.298	20.1903
5	61	497.458	20.9869
5	62	497.568	18.8443
5	63	492.53	20.4821
5	64	502.958	21.0829
5	65	499.68	20.5134
5	66	496.999	22.5182
5	67	496.022	19.4616
5	68	496.236	20.9677
5	69	499.874	21.2047
5	70	493.542	20.34
5	71	497.253	20.3921
5	72	497.6	20.9501
5	73	497.317	21.0777
5	74	495.756	21.4101
5	75	491.834	19.9975
5	76	499.098	20.8578
5	77	491.677	20.9446
5	78	494.699	20.5015
5	79	497.571	21.728
5	80	501.604	21.2306
5	81	492.156	19.9863
5	82	491.881	20.3904
5	83	499.429	20.5774
5	84	495.49	21.0344
5	85	497.43	20.9476
5	86	493.913	20.448
5	87	499.593	21.2997
5	88	496.952	21.1129
5	89	490.817	20.9278
5	90	494.81	20.2342
5	91	496.217	21.8886
5	92	497.124	20.393
5	93	495.106	20.5615
5	94	494.919	20.3555
5	95	491.616	20.9185
5	96	494.813	21.509
5	97	498.425	21.1198
5	98	489.079	22.1037
5	99	493.711	20.2932
5	100	495.703	21.8241
5	101	498.88	20.9847
5	102	493.006	20.3797
5	103	495.48	20.6091
5	104	496.997	21.1269
5	105	491.941	23.571
5	106	495.189	21.9945
5	107	490.301	23.7483
5	108	498.172	20.9447
5	109	491.073	22.4658
5	110	493.671	20.6271
5	111	495.597	20.1231
5	112	494.652	20.9053
5	113	490.637	19.7455
5	114	490.061	21.281
5	115	497.735	20.8924
5	116	494.615	21.5097
5	117	495.533	21.8352
5	118	491.024	20.8973
5	119	494.353	21.7721
5	120	497.069	21.7705
5	121	490.326	21.355
5	122	495.184	20.7588
5	123	496.094	22.4525
5	124	496.063	21.3388
5	125	495.019	21.2712
5	126	488.713	20.8051
5	127	490.936	20.7267
5	128	495.202	21.7257
5	129	498.219	21.4614
5	130	488.901	21.2226
5	131	493.245	20.3544
5	132	495.192	21.7755
5	133	494.897	22.7177
5	134	492.221	20.8103
5	135	490.72	21.5882
5	136	496.623	22.0128
5	137	490.918	22.2557
5	138	495.754	22.8544
5	139	491.902	21.4006
5	140	496.04	22.2708
5	141	492.83	22.2188
5	142	488.893	21.7402
5	143	496.551	21.6824
5	144	496	21.6077
5	145	490.362	20.7957
5	146	491.302	21.9662
5	147	498.559	21.7014
5	148	495.789	22.6148
5	149	491.257	21.8346
5	150	492.181	21.1628
5	151	495.978	22.0788
5	152	497.314	22.5408
5	153	490.296	21.9554
5	154	494.233	20.5069
5	155	496.269	21.5928
5	156	490.788	20.8634
5	157	494.758	21.2022
5	158	489.943	20.8725
5	159	489.234	20.8044
5	160	495.691	21.8871
5	161	497.839	21.5902
5	162	489.473	21.472
5	163	489.725	20.7644
5	164	496.24	23.0395
5	165	495.696	22.5911
5	166	492.511	21.8155
5	167	491.246	22.1291
5	168	497.427	22.4215
5	169	492.233	21.5511
5	170	491.593	23.3851
5	171	491.066	22.0532
5	172	496.04	22.3141
5	173	490.626	21.7861
5	174	489.919	21.8312
5	175	496.087	21.8811
5	176	495.836	22.3663
5	177	486.548	21.2869
5	178	491.637	22.1208
5	179	495.922	22.9979
5	180	495.545	23.211
5	181	490.749	21.1283
5	182	492.947	21.8519
5	183	495.995	23.0616
5	184	496.687	23.0306
5	185	490.172	22.1054
5	186	489.275	22.2215
5	187	495.081	22.4376
5	188	491.822	21.272
5	189	493.903	20.7819
5	190	490.497	21.9714
5	191	490.21	21.2186
5	192	496.414	22.8073
5	193	494.589	22.6142
5	194	488.678	21.5805
5	195	489.648	21.8226
5	196	495.982	23.6838
5	197	495.625	22.8003
5	198	492.309	21.912
5	199	492.093	22.79
5	200	494.254	23.2311
5	201	490.559	21.7837
5	202	491.239	25.0558
5	203	491.176	21.8682
5	204	496.099	21.9443
5	205	491.508	22.9117
5	206	489.392	21.7965
5	207	492.597	21.8145
5	208	496.673	22.568
5	209	486.37	20.7223
5	210	491.593	21.5602
5	211	495.559	22.8888
5	212	496.876	23.7155
5	213	491.22	21.223
5	214	489.699	22.1777
5	215	495.589	22.3393
5	216	493.621	23.1036
5	217	491.584	22.1107
5	218	491.416	23.0821
5	219	496.475	23.3393
5	220	492.583	22.1412
5	221	492.129	22.7898
5	222	491.483	22.8705
5	223	486.641	21.537
5	224	497.411	23.653
5	225	495.63	24.118
5	226	489.839	21.5621
5	227	490.821	21.8801
5	228	497.4	24.2277
5	229	496.142	23.7446
5	230	489.096	21.8307
5	231	492.581	23.3045
5	232	494.851	23.2222
5	233	492.643	22.0522
5	234	493.002	25.634
5	235	491.499	23.0658
5	236	497.069	22.9192
5	237	489.859	23.6391
5	238	491.816	23.3108
5	239	493.912	22.1938
5	240	497.76	23.4336
5	241	488.844	21.5994
5	242	491.765	23.1691
5	243	496.45	23.2905
5	244	493.159	23.6683
5	245	492.386	22.3105
5	246	490.272	22.9588
5	247	496.304	23.5277
5	248	494.114	23.207
5	249	491.402	22.8333
5	250	490.701	23.1473
5	251	493.52	23.3672
5	252	492.734	22.5826
5	253	491.655	22.1797
5	254	491.281	22.5033
5	255	488.044	21.7485
5	256	497.3	23.7888
5	257	495.348	22.9544
5	258	485.824	21.5564
5	259	491.237	22.4455
5	260	493.086	23.7616
5	261	495.605	23.9787
5	262	489.243	21.5369
5	263	492.521	23.4236
5	264	494.693	24.0618
5	265	491.527	22.3647
5	266	492.895	23.8803
5	267	487.735	22.3979
5	268	496.434	22.6876
5	269	488.181	22.8524
5	270	492.094	23.1431
5	271	493.688	22.6206
5	272	498.004	24.0648
5	273	488.552	22.1192
5	274	489.395	23.5832
5	275	496.326	23.5354
5	276	494.242	24.2412
5	277	491.436	22.8765
5	278	490.949	23.3663
5	279	496.145	23.0802
5	280	495.658	23.9173
5	281	490.626	23.3899
5	282	493.578	23.2073
5	283	494.585	23.7815
5	284	493.453	23.2269
5	285	492.622	23.1056
5	286	493.246	23.3262
5	287	489.366	22.7891
5	288	495.014	24.1733
5	289	496.13	23.5265
5	290	488.316	22.9575
5	291	491.601	23.5287
5	292	494.334	24.1531
5	293	496.441	24.899
5	294	489.703	22.3722
5	295	489.506	23.453
5	296	495.352	23.9059
5	297	487.212	21.8266
5	298	494.024	24.5176
5	299	488.712	23.305
5	300	496.204	23.215
5	301	486.861	22.2861
5	302	486.976	22.5421
5	303	492.799	22.8456
5	304	494.491	24.3679
5	305	488.03	21.9405
5	306	489.022	24.1886
5	307	495.278	23.2645
5	308	494.018	23.8207
5	309	491.533	22.4425
5	310	490.605	23.7102
5	311	493.094	23.6988
5	312	495.103	24.0422
5	313	489.102	22.701
5	314	492.413	23.1448
5	315	493.619	23.9154
5	316	492.599	23.779
5	317	491.477	23.0607
5	318	488.766	22.2118
5	319	487.253	21.7126
5	320	494.852	24.2252
5	321	494.902	23.4947
5	322	486.72	21.1793
5	323	491.358	23.3144
5	324	494.661	24.2074
5	325	492.987	24.7697
5	326	489.662	22.5031
5	327	490.323	23.5322
5	328	495.259	24.3449
5	329	489.019	22.4108
5	330	493.997	26.5397
5	331	489.845	23.0741
5	332	493.848	23.7669
5	333	489.369	23.5643
5	334	488.751	22.9271
5	335	492.663	23.2166
5	336	494.831	24.1293
5	337	487.101	21.3425
5	338	490.302	23.0603
5	339	493.207	24.1508
5	340	494.554	23.7918
5	341	489.278	22.1247
5	342	491.339	22.9434
5	343	494.087	24.1305
5	344	495.432	24.2272
5	345	489.044	22.6816
5	346	492.642	24.1693
5	347	493.344	23.9569
5	348	489.638	22.6545
5	349	491.713	23.6167
5	350	489.529	22.8839
5	351	488.563	23.5068
5	352	495.308	25.173
5	353	494.27	23.2544
5	354	487.569	22.5987
5	355	488.92	22.4633
5	356	494.725	24.4631
5	357	492.701	23.5371
5	358	490.448	22.3639
5	359	490.338	23.4726
5	360	495.519	23.9961
5	361	488.963	22.4562
5	362	490.609	25.814
5	363	489.55	23.1185
5	364	493.982	23.5748
5	365	489.399	24.0296
5	366	488.15	22.1513
5	367	492.46	23.2972
5	368	495.021	24.1514
5	369	484.089	21.6997
5	370	490.171	22.8493
5	371	493.208	23.3702
5	372	494.89	25.1005
5	373	489.156	21.7757
5	374	491.7	23.6153
5	375	493.483	23.6943
5	376	492.475	24.8097
5	377	490.518	22.9821
5	378	489.724	23.848
5	379	493.512	24.2237
5	380	490.493	23.0542
5	381	490.857	22.8285
5	382	489.626	22.4782
5	383	483.799	21.5974
5	384	495.512	24.5424
5	385	493.019	24.2066
5	386	488.338	23.3674
5	387	488.553	22.4135
5	388	495.119	25.5456
5	389	493.158	24.1144
5	390	490.298	22.3557
5	391	491.29	23.9385
5	392	492.431	25.2106
5	393	488.699	25.4177
5	394	490.651	25.4848
5	395	489.676	23.1942
5	396	494.34	24.9118
5	397	490.381	23.3273
5	398	489.424	23.1055
5	399	490.118	24.5159
5	400	495.313	24.1918
5	401	484.377	21.2261
5	402	490.116	23.6434
5	403	493.423	23.5589
5	404	494.934	24.6069
5	405	488.581	22.2045
5	406	487.02	22.9007
5	407	492.612	23.7492
5	408	491.978	24.9624
5	409	490.162	22.9176
5	410	488.512	23.9437
5	411	492.478	23.5321
5	412	489.747	23.0539
5	413	489.311	23.3374
5	414	490.136	22.7391
5	415	486.921	23.9303
5	416	495.035	24.653
5	417	492.378	23.8672
5	418	486.489	21.8373
5	419	489.309	22.624
5	420	491.614	24.7609
5	421	492.562	24.194
5	422	486.61	21.8835
5	423	491.271	26.0842
5	424	492.392	24.7567
5	425	487.674	21.7245
5	426	492.356	26.253
5	427	490.127	23.3594
5	428	494.119	24.2334
5	429	485.522	24.031
5	430	489.921	23.3958
5	431	490.064	23.2466
5	432	495.697	24.712
5	433	485.911	23.9911
5	434	490.317	22.5694
5	435	492.965	24.0085
5	436	491.398	25.323
5	437	489.426	22.4505
5	438	487.809	23.4633
5	439	493.14	23.9469
5	440	492.995	25.3834
5	441	489.664	23.3054
5	442	489.161	24.0172
5	443	491.47	25.7393
5	444	491.256	23.5167
5	445	489.844	24.847
5	446	490.065	23.6262
5	447	487.386	22.6702
5	448	496.559	25.1892
5	449	492.826	25.3457
5	450	484.171	22.3418
5	451	489.398	22.8208
5	452	492.001	24.784
5	453	492.612	24.4246
5	454	487.491	22.0563
5	455	491.244	23.7289
5	456	492.653	24.2807
5	457	484.513	22.8
5	458	491.724	26.8884
5	459	486.948	22.4872
5	460	493.979	24.5686
5	461	485.179	23.0174
5	462	489.101	23.5267
5	463	489.6	23.6422
5	464	495.995	25.1835
5	465	485.032	21.6799
5	466	486.671	22.2415
5	467	492.532	23.5276
5	468	491.907	24.7702
5	469	489.717	23.2052
5	470	489.1	23.4626
5	471	492.971	24.2283
5	472	492.979	24.6449
5	473	486.549	24.3183
5	474	489.519	24.67
5	475	491.524	23.8619
5	476	490.579	24.2164
5	477	489.848	23.5602
5	478	491.037	22.8292
5	479	488.082	22.4682
5	480	493.143	24.43
5	481	492.462	24.0261
5	482	483.519	21.9205
5	483	490.285	22.8368
5	484	492.096	24.7235
5	485	492.681	24.5289
5	486	487.732	22.0564
5	487	488.432	23.4627
5	488	492.666	24.4907
5	489	484.818	21.8725
5	490	491.391	27.6003
5	491	486.992	22.8537
5	492	493.546	24.7406
5	493	486.924	23.9476
5	494	486.235	23.5362
5	495	490.201	24.6402
5	496	492.377	24.8434
5	497	485.78	22.3168
5	498	487.215	23.029
5	499	491.946	24.686
5	500	493.923	25.1582
5	501	484.279	21.5942
5	502	487.901	24.0125
5	503	493.142	24.9244
5	504	493.426	24.2488
5	505	486.672	23.0887
5	506	489.713	23.8895
5	507	493.156	24.4787
5	508	488.774	22.8914
5	509	490.365	23.4855
5	510	486.46	24.0503
5	511	485.189	22.2425
5	512	494.333	24.8241
5	513	493.399	24.9595
5	514	483.556	21.4191
5	515	488.29	24.1468
5	516	493.758	24.455
5	517	492.369	25.1138
5	518	485.247	20.253
5	519	486.353	22.9173
5	520	494.425	26.515
5	521	484.315	24.9646
5	522	493.585	26.8264
5	523	488.16	24.6663
5	524	493.529	24.8547
5	525	487.895	24.223
5	526	486.235	23.1459
5	527	492.412	24.4697
5	528	494.754	25.1136
5	529	484.137	20.1888
5	530	487.984	23.3942
5	531	492.599	24.3249
5	532	494.445	25.1588
5	533	485.705	21.8905
5	534	489.927	26.3943
5	535	492.84	24.4196
5	536	494.609	25.0381
5	537	486.837	23.5515
5	538	487.145	25.7676
5	539	492.282	25.7753
5	540	487.327	22.4472
5	541	491.366	24.4562
5	542	487.984	23.4829
5	543	484.494	21.2541
5	544	494.47	26.827
5	545	493.728	24.7984
5	546	482.943	21.0124
5	547	486.22	23.1386
5	548	493.915	24.6561
5	549	491.963	25.0253
5	550	485.845	21.7
5	551	487.971	23.8422
5	552	493.818	25.2781
5	553	485.017	31.365
5	554	489.759	27.2108
5	555	488.469	23.8501
5	556	493.338	25.2249
5	557	486.562	22.9938
5	558	485.845	25.3698
5	559	491.134	24.1278
5	560	494.987	25.3407
5	561	479.965	20.0978
5	562	488.953	24.1816
5	563	492.48	25.0841
5	564	494.275	26.2706
5	565	485.524	21.3632
5	566	487.864	23.0007
5	567	492.311	24.5893
5	568	491.961	26.3549
5	569	486.753	23.0013
5	570	487.656	26.2824
5	571	492.207	24.1199
5	572	487.529	22.3108
5	573	490.719	24.5056
5	574	487.559	23.1009
5	575	482.423	21.1727
5	576	494.721	25.1766
5	577	492.004	24.4681
5	578	482.6	21.6942
5	579	486.678	22.7942
5	580	494.052	24.9073
5	581	491.972	24.357
5	582	482.663	21.729
5	583	489.199	24.7097
5	584	491.708	25.3306
5	585	484.239	25.7624
5	586	491.827	27.0577
5	587	488.072	24.1664
5	588	492.788	25.3425
5	589	484.012	24.5441
5	590	486.399	22.7572
5	591	490.637	26.29
5	592	494.935	25.3773
5	593	482.903	28.3936
5	594	486.898	24.0362
5	595	492.611	25.2365
5	596	493.376	26.0457
5	597	484.81	20.6632
5	598	484.18	23.3419
5	599	491.538	24.837
5	600	491.108	25.9658
5	601	486.644	23.2058
5	602	485.396	24.1068
5	603	491.717	25.163
5	604	488.11	23.8671
5	605	489.007	26.2869
5	606	486.792	23.1818
5	607	480.535	21.2848
5	608	494.62	25.1835
5	609	491.597	24.4704
5	610	483.772	20.9424
5	611	486.747	24.7829
5	612	491.503	24.5829
5	613	491.638	25.1728
5	614	481.619	20.9796
5	615	487.224	23.3016
5	616	491.444	25.508
5	617	483.918	21.91
5	618	491.248	27.9841
5	619	486.041	23.1205
5	620	493.085	25.1154
5	621	483.82	23.5483
5	622	485.753	21.559
5	623	489.97	25.2701
5	624	494.578	25.464
5	625	482.68	21.7526
5	626	488.518	24.5858
5	627	492.328	24.3363
5	628	490.946	25.6604
5	629	484.701	20.9049
5	630	486.475	24.8693
5	631	492.154	24.1975
5	632	491.979	25.7201
5	633	487.961	25.9758
5	634	486.121	24.5771
5	635	490.127	24.6138
5	636	487.501	23.0201
5	637	489.666	25.4858
5	638	489.468	25.6516
5	639	483.616	22.8931
5	640	494.692	24.5718
5	641	491.048	24.9245
5	642	480.721	21.5224
5	643	487.66	25.6125
5	644	491.107	24.9863
5	645	491.233	25.2552
5	646	483.008	21.159
5	647	489.912	26.0405
5	648	491.643	25.4446
5	649	483.467	23.3008
5	650	489.663	28.6279
5	651	484.487	24.3171
5	652	492.092	25.3573
5	653	484.303	27.5173
5	654	484.421	21.3523
5	655	488.637	23.201
5	656	492.412	25.2913
5	657	483.789	21.1607
5	658	486.466	25.521
5	659	491.437	24.4333
5	660	492.172	25.4105
5	661	485.683	22.0865
5	662	490.717	30.4756
5	663	490.809	25.2287
5	664	492.981	25.6089
5	665	485.659	26.311
5	666	487.778	24.723
5	667	490.62	25.5213
5	668	488.115	22.5745
5	669	489.601	24.7211
5	670	489.36	27.9096
5	671	485.29	21.5042
5	672	493.32	25.9542
5	673	491.703	24.0716
5	674	481.784	20.855
5	675	490.408	31.2169
5	676	492.84	25.6681
5	677	492.314	26.2069
5	678	484.307	20.8771
5	679	489.909	29.9197
5	680	492.672	24.1484
5	681	482.944	20.973
5	682	490.819	29.3846
5	683	487.165	27.0022
5	684	492.226	25.0104
5	685	487.55	32.7533
5	686	481.897	22.4638
5	687	489.064	24.0411
5	688	494.238	24.5679
5	689	483.975	20.3333
5	690	491.369	33.1934
5	691	492.13	23.9063
5	692	492.646	27.6666
5	693	483.303	23.8553
5	694	490.687	28.9705
5	695	490.853	24.6903
5	696	493.716	25.3596
5	697	488.48	33.7628
5	698	490.939	25.6875
5	699	492.01	24.2063
5	700	487.114	22.1361
5	701	486.87	23.7261
5	702	489.335	28.6278
5	703	486.991	20.5856
5	704	494.676	25.4403
5	705	491.929	23.8663
5	706	484.89	20.9793
5	707	492.06	29.2474
5	708	492.14	24.2347
5	709	492.214	26.9061
5	710	483.393	21.5554
5	711	496.826	38.6022
5	712	493.304	23.3831
5	713	485.433	20.3964
5	714	498.573	34.736
5	715	487.336	27.5555
5	716	491.088	24.3711
5	717	498.735	42.1414
5	718	483.926	21.5361
5	719	490.749	24.1966
5	720	495.498	30.3477
5	721	488.976	32.1656
5	722	495.746	37.8885
5	723	490.961	24.3933
5	724	493.03	25.5628
5	725	485.812	22.1667
5	726	500.824	39.7084
5	727	490.637	22.1719
5	728	494.418	24.1717
5	729	488	18.0428
5	730	487.26	25.0337
5	731	489.952	22.0335
5	732	492.731	24.1677
5	733	487.92	20.981
5	734	483.357	27.2279
5	735	485.467	14.7011
5	736	496.832	25.3144
5	737	489.434	23.9389
5	738	487	20.9709
5	739	493.66	39.5586
5	740	494.114	24.2457
5	741	492.141	21.0622
5	742	482.938	26.4788
5	743	488.111	50.459
5	744	491.158	24.1477
5	745	484	23.7434
5	746	481.6	16.8315
5	747	507.875	53.2794
5	748	490.29	23.6545
5	749	527.25	77.289
5	750	475.75	15.327
5	751	496.091	53.9982
5	752	494.164	20.878
5	753	462	NA
5	754	494.765	48.106
5	755	496.412	25.5356
5	756	490.92	27.4027
5	757	474	NA
5	758	472	24.2899
5	759	490.25	20.7958
5	760	482.8	21.4049
5	761	457	NA
5	763	489.524	25.0072
5	764	491.5	23.3345
5	765	495.667	35.1492
5	766	494.571	22.4192
5	768	491.696	23.2133
5	769	497.8	24.1081
5	771	539	57.9828
5	772	495	17.0545
5	773	496	21.623
5	774	516	9.89949
5	776	490	37.3363
5	778	496	NA
5	780	499.4	21.594
5	782	458	NA
5	784	518.667	4.04145
5	789	479	NA
5	795	485	12.7279
5	798	491	NA
5	808	521	NA
5	825	452	NA
6	7	595.775	28.1626
6	8	594.797	23.2444
6	9	594.433	28.6784
6	10	596.962	22.8944
6	11	600.41	23.7505
6	12	598.355	26.1669
6	13	600.05	22.7757
6	14	595.739	29.3729
6	15	598.575	25.7405
6	16	597.958	22.8058
6	17	597.771	25.5892
6	18	598.937	24.1133
6	19	598.302	26.6071
6	20	598.173	23.9868
6	21	598.732	26.5753
6	22	598.144	26.9939
6	23	597.832	24.7198
6	24	595.523	23.1993
6	25	600.478	27.1564
6	26	592.24	21.6267
6	27	597.307	24.7229
6	28	596.671	27.7063
6	29	598.456	25.2685
6	30	596.948	24.3041
6	31	595.023	23.8509
6	32	598.888	23.2577
6	33	597.464	24.6242
6	34	598.561	30.1082
6	35	598.97	24.4778
6	36	598.669	24.2417
6	37	597.566	23.6115
6	38	596.5	26.3121
6	39	600.379	25.3301
6	40	595.258	22.6486
6	41	598.627	27.1808
6	42	593.805	22.0485
6	43	599.346	23.7387
6	44	597.239	23.3676
6	45	593.797	23.0636
6	46	598.989	25.7473
6	47	595.825	22.7393
6	48	599.15	22.78
6	49	596.908	24.7832
6	50	600.122	25.8194
6	51	596.538	23.4752
6	52	592.154	21.9122
6	53	595.938	26.3835
6	54	599.596	23.2849
6	55	596.757	23.5996
6	56	594.39	22.0817
6	57	600.256	26.0686
6	58	592.008	22.8106
6	59	593.607	22.9139
6	60	598.62	25.5466
6	61	594.031	22.8046
6	62	597.967	23.9266
6	63	595.332	25.4495
6	64	597.827	22.7007
6	65	595.704	22.6888
6	66	595.499	25.2952
6	67	600.343	24.9011
6	68	591.985	22.2321
6	69	594.96	23.0923
6	70	596.36	25.5623
6	71	598.848	24.4086
6	72	593.476	23.782
6	73	596.764	25.7582
6	74	592.506	22.5201
6	75	595.359	23.5125
6	76	595.051	23.4683
6	77	595.855	24.3488
6	78	599.434	25.5648
6	79	594.76	23.642
6	80	596.273	22.9814
6	81	594.989	23.9018
6	82	595.053	25.2701
6	83	595.435	23.2163
6	84	591.501	22.8533
6	85	593.418	24.7014
6	86	596.429	23.855
6	87	594.963	24.1803
6	88	592.705	22.6788
6	89	591.129	23.816
6	90	591.598	22.784
6	91	593.003	24.4326
6	92	596.947	25.6953
6	93	593.726	22.6867
6	94	596.341	23.9269
6	95	590.552	24.3415
6	96	591.535	23.1085
6	97	594.305	23.869
6	98	590.189	25.2883
6	99	596.449	24.0205
6	100	591.876	23.4656
6	101	593.7	23.2828
6	102	590.52	23.5567
6	103	597.177	22.7657
6	104	592.479	22.7061
6	105	589.134	22.8581
6	106	591.047	21.2443
6	107	591.323	24.1095
6	108	593.241	22.6573
6	109	591.902	23.1863
6	110	595.579	23.9538
6	111	593.327	24.4657
6	112	591.207	22.8384
6	113	594.597	24.332
6	114	593.664	24.2156
6	115	593.757	23.5921
6	116	590.586	22.6971
6	117	591.993	23.9268
6	118	595.496	25.4605
6	119	591.086	24.1293
6	120	592.509	23.2604
6	121	593.791	23.9588
6	122	590.336	22.0887
6	123	591.675	24.9415
6	124	593.714	25.4087
6	125	592.732	24.0975
6	126	593.007	23.2404
6	127	592.588	22.1821
6	128	591.498	22.8632
6	129	593.546	23.5337
6	130	588.893	23.88
6	131	596.334	24.403
6	132	592.067	23.6387
6	133	591.713	24.8397
6	134	593.069	25.1482
6	135	592.377	22.8335
6	136	592.185	23.8251
6	137	592.461	32.4365
6	138	592.201	23.0969
6	139	592.455	28.2999
6	140	592.238	24.6852
6	141	591.285	24.0719
6	142	590.477	24.1862
6	143	593.077	23.9281
6	144	592.292	23.5088
6	145	592.44	26.6994
6	146	594.119	24.2095
6	147	594.356	24.1545
6	148	591.207	23.581
6	149	588.446	26.1508
6	150	595.2	22.8069
6	151	591.822	24.0979
6	152	592.722	24.2059
6	153	589.883	21.3019
6	154	589.954	22.7458
6	155	590.775	24.5282
6	156	592.352	24.2527
6	157	592	23.2693
6	158	592.813	23.4308
6	159	587.564	24.1629
6	160	591.703	24.1635
6	161	593.423	24.0274
6	162	589.492	23.6876
6	163	594.493	24.2378
6	164	591.172	23.6395
6	165	591.918	25.2002
6	166	593.491	25.5248
6	167	593.429	23.0534
6	168	592.151	24.5646
6	169	594.469	25.2788
6	170	588.669	22.9953
6	171	592.855	24.7857
6	172	591.187	24.225
6	173	591.297	22.9153
6	174	591.58	26.0273
6	175	592.176	23.7136
6	176	591.985	24.1819
6	177	588.85	23.7703
6	178	592.661	23.9011
6	179	591.818	24.933
6	180	591.011	24.5758
6	181	588.941	23.666
6	182	595.197	22.9225
6	183	591.539	24.1456
6	184	592.549	24.5253
6	185	591.683	23.3
6	186	586.389	24.7485
6	187	591.208	23.8108
6	188	591.304	25.0512
6	189	591.569	23.6655
6	190	592.296	23.1225
6	191	590.159	23.2244
6	192	591.889	25.3379
6	193	591.732	25.7618
6	194	592.812	26.0757
6	195	592.562	24.1444
6	196	592.138	24.3432
6	197	591.513	24.5844
6	198	594.487	26.56
6	199	592.544	25.1151
6	200	589.692	23.9828
6	201	592.663	27.7618
6	202	586.878	22.6865
6	203	591.545	23.7452
6	204	591.05	24.6201
6	205	593.734	21.8201
6	206	590.874	24.0593
6	207	590.14	24.8408
6	208	592.734	24.577
6	209	587.946	23.9424
6	210	591.168	22.1689
6	211	591.459	23.9859
6	212	591.816	25.632
6	213	589.791	25.3222
6	214	592.204	22.9022
6	215	591.033	24.6847
6	216	590.262	24.479
6	217	592.023	22.8255
6	218	587.826	24.2123
6	219	591.213	24.456
6	220	591.109	25.2369
6	221	590.599	24.455
6	222	595.795	25.2155
6	223	586.515	24.3292
6	224	592.471	24.9919
6	225	591.987	24.2464
6	226	592.801	25.4087
6	227	592.726	23.5806
6	228	591.812	24.4627
6	229	591.991	25.9114
6	230	592.846	25.4834
6	231	592.679	22.402
6	232	589.58	23.7611
6	233	593.079	26.0073
6	234	588.569	25.0893
6	235	591.19	24.6024
6	236	591.261	24.9238
6	237	592.579	23.2573
6	238	592.129	25.7519
6	239	591.274	25.1333
6	240	593.29	24.4713
6	241	590.17	26.4557
6	242	593.625	33.987
6	243	591.91	24.3363
6	244	590.135	24.3798
6	245	589.778	24.7345
6	246	593.714	26.7134
6	247	591.57	25.0798
6	248	590.913	24.537
6	249	593.006	24.0992
6	250	587.879	24.2735
6	251	589.837	25.2409
6	252	590.941	24.7784
6	253	591.343	25.7549
6	254	591.899	24.241
6	255	582.217	24.2806
6	256	592.348	24.9838
6	257	591.445	24.5204
6	258	590.594	26.1814
6	259	593.768	25.17
6	260	590.158	25.0875
6	261	591.233	24.6524
6	262	591.745	25.2625
6	263	591.324	23.0043
6	264	589.508	23.5791
6	265	592.17	26.3737
6	266	590.391	23.8592
6	267	590.87	22.74
6	268	590.911	24.3919
6	269	593.918	21.9982
6	270	590.693	24.9774
6	271	591.204	24.2701
6	272	592.7	24.4603
6	273	591.616	26.2466
6	274	593.672	27.2794
6	275	591.225	24.983
6	276	590.186	25.544
6	277	587.844	25.0006
6	278	596.992	27.3476
6	279	590.493	23.7917
6	280	590.941	24.4047
6	281	587.218	21.894
6	282	587.946	24.1418
6	283	590.4	25.2555
6	284	591.197	25.9946
6	285	590.953	25.0208
6	286	595.098	24.9073
6	287	586.631	24.627
6	288	590.119	24.2069
6	289	591.21	23.9869
6	290	591.369	27.0063
6	291	593.062	24.9611
6	292	590.131	24.2152
6	293	591.111	25.3351
6	294	593.271	27.3538
6	295	590.604	24.489
6	296	590.922	24.923
6	297	589.492	24.4424
6	298	591.303	24.0783
6	299	590.478	22.6678
6	300	590.427	27.4783
6	301	596.025	24.507
6	302	585.699	22.3757
6	303	590.57	26.1978
6	304	590.54	24.8658
6	305	593.355	24.4298
6	306	591.45	23.0512
6	307	590.348	25.5746
6	308	590.048	26.1245
6	309	590.162	24.6888
6	310	593.207	23.9301
6	311	589.37	24.3831
6	312	590.399	23.848
6	313	584.954	21.4113
6	314	588.518	23.2267
6	315	589.223	24.7015
6	316	592.753	25.6652
6	317	588.966	23.8795
6	318	591.06	23.9457
6	319	589.503	24.2879
6	320	590.381	25.0979
6	321	590.225	24.0892
6	322	592.561	30.7568
6	323	594.019	24.2082
6	324	590.512	24.1431
6	325	589.411	26.3197
6	326	590.444	25.6039
6	327	591.598	28.5956
6	328	591.244	24.9358
6	329	589.407	24.983
6	330	591.815	24.7111
6	331	591.76	22.6425
6	332	589.209	24.401
6	333	594.51	23.8944
6	334	587.044	23.5824
6	335	589.72	23.9343
6	336	590.278	24.116
6	337	592.039	25.1979
6	338	592.882	24.2366
6	339	589.386	24.5096
6	340	590.348	25.1096
6	341	586.867	24.5115
6	342	594.579	23.835
6	343	588.588	24.1119
6	344	591.131	25.2933
6	345	585.701	22.6575
6	346	589.012	23.7214
6	347	589.499	24.7224
6	348	591.143	25.3262
6	349	589.018	25.9513
6	350	591.897	24.3287
6	351	587.358	23.4449
6	352	590.352	24.6387
6	353	589.889	24.948
6	354	592.755	25.9022
6	355	591.581	22.9093
6	356	590.847	25.6182
6	357	589.035	26.2526
6	358	590.302	25.9814
6	359	589.206	23.4685
6	360	590.514	23.7839
6	361	589.471	25.443
6	362	588.644	23.6294
6	363	591.475	21.483
6	364	588.956	24.9885
6	365	595.782	24.0552
6	366	588.746	24.137
6	367	587.812	23.2932
6	368	591.04	24.4815
6	369	590.962	25.865
6	370	590.266	24.3501
6	371	589.144	24.2488
6	372	590.324	24.179
6	373	586.862	23.3172
6	374	594.674	25.2844
6	375	589.521	25.7563
6	376	588.483	24.5022
6	377	588.932	22.5321
6	378	588.229	25.5303
6	379	588.6	25.1146
6	380	590.082	24.5121
6	381	588.579	24.379
6	382	592.739	24.1747
6	383	586.541	23.3305
6	384	591.296	25.1828
6	385	589.215	24.6211
6	386	595.533	27.2304
6	387	593.827	22.7826
6	388	590.596	25.0887
6	389	589.397	25.0434
6	390	591.807	26.3546
6	391	591.482	23.8497
6	392	588.865	24.9328
6	393	591.086	25.0198
6	394	588.796	23.7217
6	395	590.477	24.5091
6	396	588.836	26.1637
6	397	597.076	25.2098
6	398	589.348	25.4298
6	399	586.901	24.2102
6	400	591.144	24.8654
6	401	590.138	25.3403
6	402	594.345	23.2175
6	403	588.64	24.1875
6	404	589.253	24.1912
6	405	586.185	22.751
6	406	591.861	21.8506
6	407	588.049	23.6393
6	408	588.127	23.3817
6	409	587.822	22.9673
6	410	584.481	24.7951
6	411	588.068	23.7756
6	412	590.734	26.6307
6	413	586.653	23.6279
6	414	591.303	23.9371
6	415	584.873	23.6413
6	416	591.308	25.4958
6	417	587.929	23.7642
6	418	592.467	24.1707
6	419	592.627	22.3705
6	420	588.49	23.985
6	421	588.434	24.5087
6	422	588.182	24.3635
6	423	592.162	22.9966
6	424	589.007	24.2879
6	425	591.751	24.9705
6	426	588.613	23.3501
6	427	588.73	22.1047
6	428	587.866	24.1394
6	429	590.122	21.8484
6	430	589.559	24.0319
6	431	587.106	23.6248
6	432	591.541	25.0111
6	433	589.349	25.114
6	434	593.782	24.1713
6	435	588.416	25.7142
6	436	587.991	24.1305
6	437	586.961	23.6258
6	438	591.256	27.0029
6	439	588.441	24.1403
6	440	589.356	24.6388
6	441	590.314	21.5709
6	442	586.349	22.6864
6	443	587.664	24.938
6	444	588.624	26.844
6	445	587.605	25.0521
6	446	589.5	22.8704
6	447	584.972	22.8435
6	448	591.899	25.6772
6	449	588.636	23.9751
6	450	591.354	24.9835
6	451	593.173	24.6468
6	452	588.262	24.7195
6	453	588.163	25.0626
6	454	588.171	24.721
6	455	590.377	22.2716
6	456	589.313	24.7174
6	457	587.393	26.8687
6	458	589.214	23.6643
6	459	588.05	23.9463
6	460	587.997	25.189
6	461	595.374	23.2135
6	462	588.825	23.1871
6	463	585.532	24.0188
6	464	591.519	24.6857
6	465	592.919	24.2736
6	466	593.671	24.4627
6	467	588.86	24.2438
6	468	587.914	24.2423
6	469	584.399	20.7977
6	470	591.025	23.9656
6	471	587.879	23.8951
6	472	589.633	25.1413
6	473	589.237	24.0093
6	474	587.973	23.5957
6	475	587.536	26.3509
6	476	588.753	25.3848
6	477	585.222	23.7481
6	478	593.726	24.2743
6	479	584.712	23.7492
6	480	590.07	24.6819
6	481	587.551	23.1989
6	482	588.988	27.1268
6	483	593.466	22.3737
6	484	590.047	25.104
6	485	588.619	24.223
6	486	588.917	24.9348
6	487	589.33	22.7493
6	488	590.394	25.8462
6	489	591.21	26.2966
6	490	589.882	26.0703
6	491	588.59	23.4691
6	492	588.725	24.6962
6	493	589.947	23.5173
6	494	582.05	22.3989
6	495	586.66	24.069
6	496	588.897	25.1099
6	497	590.806	27.884
6	498	591.639	25.3069
6	499	587.969	24.8795
6	500	587.639	25.6501
6	501	587.094	28.2255
6	502	589.103	22.2736
6	503	586.297	24.2221
6	504	588.856	24.4502
6	505	588.778	21.4075
6	506	589.593	24.1145
6	507	586.927	25.8114
6	508	592.183	27.4965
6	509	586.272	23.3349
6	510	592.3	23.6969
6	511	589.05	22.0846
6	512	589.695	24.8126
6	513	587.567	23.3737
6	514	587.791	25.4962
6	515	592.354	22.6377
6	516	588.964	24.4171
6	517	587.454	24.0246
6	518	585.32	22.4385
6	519	588.258	19.937
6	520	590.384	24.5555
6	521	587.738	30.6517
6	522	589.524	24.5145
6	523	585.396	20.588
6	524	586.639	23.5656
6	525	593.505	22.2396
6	526	583.091	23.8948
6	527	585.619	23.4747
6	528	589.868	24.9583
6	529	594.419	26.6328
6	530	593.521	24.3228
6	531	587.46	24.6197
6	532	588.308	23.7955
6	533	583.641	20.9714
6	534	594.371	24.5651
6	535	587.052	23.6503
6	536	589.705	23.4235
6	537	589.393	22.7534
6	538	585.619	23.4662
6	539	586.618	24.4319
6	540	589.917	24.4062
6	541	586.26	23.8683
6	542	593.601	24.0974
6	543	586.938	24.3592
6	544	589.906	25.4772
6	545	587.803	23.3599
6	546	582.319	21.0265
6	547	589.897	22.6207
6	548	588.256	23.4531
6	549	586.849	24.8214
6	550	586.203	25.1657
6	551	586.403	20.8654
6	552	590.521	27.1133
6	553	587.019	41.1434
6	554	585.133	23.8852
6	555	592.547	20.3516
6	556	586.011	23.7572
6	557	595.308	22.9874
6	558	584.904	23.6857
6	559	584.481	21.897
6	560	590.833	26.748
6	561	590.879	28.6327
6	562	593.591	26.0003
6	563	586.416	24.0441
6	564	588.434	26.8673
6	565	583.715	22.704
6	566	593.39	22.8454
6	567	586.986	22.8784
6	568	587.748	23.6919
6	569	593.043	21.449
6	570	584.446	22.0795
6	571	586.554	24.4813
6	572	591.505	25.2153
6	573	584.694	22.6219
6	574	590.677	21.2011
6	575	585.692	20.6926
6	576	589.056	24.2164
6	577	586.238	23.7316
6	578	588.404	24.8275
6	579	593.216	22.3738
6	580	588.135	23.9772
6	581	586.8	24.4964
6	582	583.466	22.3431
6	583	590.393	23.8754
6	584	587.348	24.1121
6	585	586.081	21.5812
6	586	586.275	26.5194
6	587	591.678	23.3212
6	588	586.877	23.7047
6	589	595.884	22.6353
6	590	586.787	23.8895
6	591	585.29	25.487
6	592	589.555	24.391
6	593	592.641	24.0191
6	594	591.928	23.0551
6	595	585.71	24.3714
6	596	587.866	24.1206
6	597	581.314	23.5305
6	598	593.115	23.0383
6	599	586.403	23.5916
6	600	586.695	22.4728
6	601	588.609	21.1761
6	602	583.757	22.6656
6	603	584.978	23.1049
6	604	588.713	24.1108
6	605	583.291	23.4718
6	606	593.898	22.7409
6	607	581.88	21.9885
6	608	589.649	23.3848
6	609	585.521	23.9113
6	610	587.276	22.8741
6	611	593.641	22.3033
6	612	586.435	23.5831
6	613	585.986	23.7532
6	614	587.729	22.0069
6	615	591.421	23.8623
6	616	588.053	25.8625
6	617	589.31	23.7338
6	618	586.304	21.5524
6	619	591.06	25.5893
6	620	585.701	22.5307
6	621	592.325	24.8325
6	622	587.497	24.7391
6	623	584.397	22.8023
6	624	589.861	24.6371
6	625	589.974	24.424
6	626	596.177	22.5527
6	627	585.968	22.7881
6	628	586.919	22.2624
6	629	587.817	23.0796
6	630	591.979	25.0168
6	631	585.492	21.7664
6	632	587.813	22.9342
6	633	592.975	21.1732
6	634	586.464	25.1336
6	635	585.262	24.0315
6	636	585.867	22.1978
6	637	583.575	21.6696
6	638	592.811	27.0932
6	639	578.944	21.9284
6	640	589.792	27.6732
6	641	584.309	23.0589
6	642	587.175	27.7691
6	643	589.12	22.5325
6	644	587.695	24.4131
6	645	586.416	23.3868
6	646	592.154	26.018
6	647	590.162	22.9704
6	648	587.335	23.2177
6	649	586.73	20.2351
6	650	584.806	20.2566
6	651	588.631	20.2612
6	652	584.981	25.4706
6	653	604.667	33.8004
6	654	583.99	23.4211
6	655	582.947	21.1682
6	656	588.145	24.3347
6	657	587.143	20.6393
6	658	595.114	25.0946
6	659	584.943	21.7426
6	660	586.264	22.9314
6	661	582.588	21.7082
6	662	588.879	19.0969
6	663	585.169	22.9912
6	664	587.59	20.825
6	665	591.81	33.6033
6	666	587.406	21.2672
6	667	584.264	22.2469
6	668	588.85	25.1993
6	669	584.657	21.2699
6	670	598.899	28.8399
6	671	587.688	21.6602
6	672	587.834	22.6058
6	673	585.612	21.2703
6	674	587.562	22.0877
6	675	597.278	33.997
6	676	588.265	22.9663
6	677	586.49	26.1044
6	678	589.66	20.1659
6	679	592.019	32.0095
6	680	588.075	22.3132
6	681	584.629	17.8508
6	682	587.507	20.5385
6	683	595.158	26.738
6	684	584.863	22.5036
6	685	594.174	29.7973
6	686	599	28.7222
6	687	582.802	20.4555
6	688	588.483	22.7452
6	689	590.815	18.1278
6	690	600.544	35.5749
6	691	584.327	21.0092
6	692	587.51	22.2282
6	693	578.667	16.3006
6	694	599	25.267
6	695	586.2	22.4556
6	696	587.395	25.0923
6	697	594.625	36.6895
6	698	587.984	21.2884
6	699	583.93	22.6958
6	700	585.558	25.4449
6	701	586.71	21.8585
6	702	593.333	23.4724
6	703	587.8	33.7594
6	704	590.294	24.0876
6	705	585.407	20.1586
6	706	583.8	31.0727
6	707	581.125	16.5395
6	708	589.699	23.8781
6	709	582.028	20.6427
6	710	578.75	20.9968
6	711	602	41.1686
6	712	587.104	21.0189
6	713	578.625	17.8801
6	714	581.667	18.6923
6	715	584.571	20.9193
6	716	585.511	20.5417
6	717	606.75	45.213
6	718	582	13.5647
6	719	583.132	21.2368
6	720	589.347	24.1076
6	721	599.25	18.1797
6	722	606.462	53.8851
6	723	580.841	18.1806
6	724	587.395	18.7947
6	725	575.667	14.2244
6	726	601.25	3.20156
6	727	585.628	19.8632
6	728	592.312	26.255
6	729	597	29.6985
6	730	579	12.5925
6	731	587.106	21.3167
6	732	587.625	20.9212
6	733	584.818	24.3385
6	735	569	4.24264
6	736	589.4	19.7212
6	737	577.85	16.6521
6	738	560	NA
6	739	587	NA
6	740	598	18.4701
6	741	583.538	12.36
6	742	574	19.0188
6	744	585.154	27.2484
6	746	600.5	43.1335
6	747	607	53.7401
6	748	582.65	14.6441
6	750	575	NA
6	751	594	1.41421
6	752	582.182	9.05338
6	753	581	NA
6	755	578	1
6	756	595.5	17.253
6	757	630	NA
6	758	560	NA
6	759	587	26.0768
6	760	577	NA
6	763	597	NA
6	764	590	NA
6	765	617.5	9.19239
6	773	577	16.9706
6	774	593	1.41421
6	784	560	NA
6	785	591	NA
7	7	694.084	28.8343
7	8	695.057	26.3411
7	9	685.586	26.5576
7	10	695.51	26.9362
7	11	698.453	28.8853
7	12	695.035	28.7317
7	13	693.127	25.0667
7	14	684.828	26.2378
7	15	694.206	31.0531
7	16	697.386	26.632
7	17	691.901	27.3702
7	18	695.669	27.9672
7	19	695.777	28.8161
7	20	696.624	26.5438
7	21	687.562	24.9438
7	22	696.521	28.2097
7	23	695.767	27.2805
7	24	694.003	25.0095
7	25	691.493	28.8113
7	26	693.723	25.5786
7	27	694.94	27.2489
7	28	689.582	27.4495
7	29	696.139	27.6378
7	30	697.487	29.2226
7	31	680.444	25.4642
7	32	697.949	26.807
7	33	696.734	27.253
7	34	689.917	26.6191
7	35	699.365	25.8129
7	36	697.543	26.0039
7	37	697.489	27.4685
7	38	684.782	26.3313
7	39	694.829	26.2538
7	40	695.801	26.8028
7	41	686.985	27.8522
7	42	695.104	25.6419
7	43	701.667	25.5395
7	44	697.659	26.0099
7	45	702.175	27.5485
7	46	681.284	24.2993
7	47	694.91	26.2057
7	48	699.071	26.1323
7	49	685.432	22.3396
7	50	691.491	26.9359
7	51	697.181	26.3322
7	52	693.464	24.947
7	53	687.885	26.6614
7	54	698.514	23.814
7	55	696.895	26.3384
7	56	692.925	24.9816
7	57	688.857	26.2002
7	58	692.893	23.7479
7	59	693.354	25.6952
7	60	687.3	24.9212
7	61	693.16	26.3156
7	62	692.5	23.4823
7	63	680.042	17.8337
7	64	696.144	26.0834
7	65	696.146	26.1998
7	66	692.268	26.6827
7	67	697.949	26.0698
7	68	693.324	25.4408
7	69	695.153	26.1024
7	70	681.053	23.3489
7	71	694.359	23.5955
7	72	693.44	25.0408
7	73	689.866	26.0885
7	74	691.22	26.1783
7	75	696.905	27.2764
7	76	693.096	25.6628
7	77	690.525	26.3854
7	78	686.381	25.0556
7	79	691.639	26.6899
7	80	695.67	26.5692
7	81	689.825	22.4921
7	82	685.5	25.975
7	83	695.526	26.7334
7	84	691.599	25.3989
7	85	692.775	27.7312
7	86	691.173	24.5027
7	87	693.387	26.0061
7	88	691.97	25.4072
7	89	691.805	29.4264
7	90	695.004	27.0376
7	91	693.905	24.9328
7	92	686.757	25.252
7	93	693.496	28.1843
7	94	693.365	25.9761
7	95	681.444	21.1722
7	96	693.212	26.1986
7	97	694.514	25.7561
7	98	692.35	28.1573
7	99	700.355	26.968
7	100	691.283	25.4186
7	101	694.107	25.6233
7	102	685.427	24.1712
7	103	692.537	25.174
7	104	692.782	25.7754
7	105	692.127	26.3924
7	106	694.237	25.1222
7	107	692.467	26.3757
7	108	693.176	25.6741
7	109	681.064	21.5098
7	110	684.491	24.5976
7	111	691.908	26.2436
7	112	691.508	24.6513
7	113	690.653	25.1619
7	114	692.492	25.0507
7	115	692.658	26.1095
7	116	688.886	25.077
7	117	699.524	28.5874
7	118	688.758	22.6511
7	119	690.703	26.009
7	120	691.105	26.1633
7	121	689.167	22.0448
7	122	688.164	27.6116
7	123	693.074	27.9722
7	124	689.574	25.3006
7	125	691.301	26.4636
7	126	691.4	25.9623
7	127	675.333	16.8075
7	128	690.065	25.5264
7	129	692.128	24.9066
7	130	699.781	36.414
7	131	696.387	26.4144
7	132	689.789	25.084
7	133	691.519	26.4324
7	134	687.831	25.0676
7	135	691.467	27.7153
7	136	690.869	25.3626
7	137	694.411	28.5668
7	138	694.845	27.1314
7	139	694.805	27.8175
7	140	691.314	26.2585
7	141	689.431	25.2406
7	142	688.592	30.3363
7	143	693.518	25.362
7	144	690.244	25.5198
7	145	694.407	24.1546
7	146	693.992	25.958
7	147	691.432	26.9366
7	148	690.437	26.141
7	149	693.328	25.7282
7	150	690.165	23.9473
7	151	689.786	26.3083
7	152	690.256	25.5335
7	153	682.19	21.4695
7	154	691.035	25.4188
7	155	691.385	26.3781
7	156	689.514	23.7415
7	157	689.725	26.4421
7	158	692.871	21.9252
7	159	668.167	12.1941
7	160	690.859	25.5654
7	161	691.579	25.9151
7	162	693.143	27.5113
7	163	693.323	28.1326
7	164	690.998	26.3703
7	165	689.357	25.8468
7	166	685.141	23.5624
7	167	685.747	23.2025
7	168	690.07	25.5617
7	169	685.196	21.4352
7	170	687.591	25.2788
7	171	688.744	22.4734
7	172	689.989	25.7182
7	173	683.025	21.2065
7	174	685.597	24.365
7	175	690.733	26.038
7	176	690.432	27.151
7	177	688.5	23.5733
7	178	690.952	23.3586
7	179	688.28	25.8209
7	180	690.622	25.4414
7	181	690.569	25.0803
7	182	689.992	25.0636
7	183	690.356	25.6654
7	184	691.133	25.5831
7	185	691.491	24.9928
7	186	687.503	27.312
7	187	691.494	25.1912
7	188	692.437	24.0606
7	189	689.644	26.9191
7	190	693.898	28.6308
7	191	674	24.3516
7	192	692.67	26.5556
7	193	690.274	25.805
7	194	696.012	26.0195
7	195	691.231	25.0568
7	196	691.865	26.2392
7	197	690.649	25.8185
7	198	684.5	24.5733
7	199	688.122	21.8504
7	200	690.397	26.5401
7	201	690.967	25.2861
7	202	691.495	27.0924
7	203	692.195	25.0362
7	204	689.546	25.5776
7	205	696.815	25.3211
7	206	686.13	24.7303
7	207	687.946	25.1553
7	208	690.663	25.1737
7	209	687.302	25.6808
7	210	692.453	24.6874
7	211	689.157	25.9203
7	212	690.196	25.999
7	213	687.421	22.0589
7	214	697.354	25.3173
7	215	689.495	25.8416
7	216	689.029	25.2848
7	217	688.634	22.1707
7	218	693.312	25.5804
7	219	690.617	25.5788
7	220	694.238	27.5787
7	221	687.07	25.6395
7	222	695.264	26.3075
7	223	669.182	14.8984
7	224	691.555	25.863
7	225	689.11	25.5829
7	226	691.467	26.4361
7	227	690.537	24.6459
7	228	692.475	25.7427
7	229	691.261	26.1449
7	230	684.756	23.0651
7	231	685.78	25.0042
7	232	689.385	24.6007
7	233	684.725	22.062
7	234	689.702	27.2365
7	235	692.962	25.727
7	236	688.148	25.8588
7	237	690.613	26.447
7	238	685.117	24.4346
7	239	690.663	26.3148
7	240	690.525	26.2684
7	241	691.13	22.2257
7	242	693.01	25.8715
7	243	690.424	26.6965
7	244	689.916	25.8174
7	245	688.105	23.2415
7	246	691.177	26.9937
7	247	689.526	25.1314
7	248	689.931	26.3063
7	249	691.8	23.9085
7	250	690.714	26.6248
7	251	687.91	27.2888
7	252	688.637	24.7585
7	253	689.465	26.0485
7	254	698.935	29.2644
7	255	688.6	22.5743
7	256	691.092	26.4914
7	257	689.574	25.9859
7	258	691.132	23.2019
7	259	690.795	24.9961
7	260	689.251	25.7182
7	261	689.624	25.9848
7	262	683.81	24.5967
7	263	696.69	25.5951
7	264	690.132	24.8393
7	265	686.691	21.7388
7	266	688.437	26.8549
7	267	689.5	23.4762
7	268	688.59	26.038
7	269	685.216	23.535
7	270	686.674	22.7792
7	271	689.475	26.561
7	272	691.686	25.8759
7	273	682.019	20.7087
7	274	690.7	24.8452
7	275	689.723	26.5781
7	276	689.308	27.7707
7	277	684.714	24.0915
7	278	688.758	24.7895
7	279	689.016	25.3547
7	280	689.86	25.9992
7	281	693.973	27.9359
7	282	688.057	26.2652
7	283	688.418	26.2658
7	284	687.521	24.2628
7	285	688.824	25.8737
7	286	687.758	26.6849
7	287	680.875	17.6668
7	288	689.635	25.037
7	289	688.724	25.5456
7	290	687.917	27.0451
7	291	690.525	26.8479
7	292	690.007	25.3334
7	293	690.173	26.7048
7	294	686.817	23.3907
7	295	690.762	26.0779
7	296	691.936	26.3563
7	297	687.594	24.8781
7	298	687.144	25.5869
7	299	682.7	20.8582
7	300	686.967	25.8436
7	301	683.359	25.0867
7	302	685.767	20.7006
7	303	688.254	28.2227
7	304	688.786	25.7439
7	305	691.26	22.823
7	306	698.402	22.3028
7	307	688.809	25.1851
7	308	686.182	24.672
7	309	694.59	24.8317
7	310	688.053	24.8873
7	311	687.798	25.4766
7	312	689.96	25.8258
7	313	685.621	17.0847
7	314	691.423	25.5741
7	315	686.511	25.4798
7	316	689.878	24.1215
7	317	687.474	26.912
7	318	687.149	23.8869
7	319	687.556	23.1577
7	320	690.507	26.4567
7	321	688.398	26.0963
7	322	693.759	22.2337
7	323	689.31	27.8222
7	324	689.236	25.6655
7	325	687.931	25.7553
7	326	691.533	26.5744
7	327	692.989	26.0033
7	328	689.293	27.2001
7	329	688.78	23.9171
7	330	688.248	24.201
7	331	691.048	28.2409
7	332	687.563	26.9625
7	333	690.091	17.0245
7	334	686.105	25.3588
7	335	688.163	25.478
7	336	690.807	26.1028
7	337	686.133	24.8511
7	338	691.744	23.9164
7	339	688.473	28.0472
7	340	688.917	30.8216
7	341	696.349	23.4733
7	342	690.629	26.7022
7	343	688.585	25.652
7	344	690.731	26.3069
7	345	694.636	24.0011
7	346	689.395	26.7112
7	347	688	25.491
7	348	695.325	26.8165
7	349	689.434	27.4085
7	350	686.548	24.4722
7	351	665.667	8.47742
7	352	689.354	25.8391
7	353	686.954	24.6091
7	354	690.267	24.8764
7	355	686.738	24.6129
7	356	690.713	27.4358
7	357	687.982	26.1537
7	358	688.831	23.7356
7	359	689.957	24.6544
7	360	689.533	25.2943
7	361	687.24	19.7666
7	362	687.686	23.0747
7	363	684.6	23.8851
7	364	686.252	25.5168
7	365	685	24.7446
7	366	688.07	24.6551
7	367	687.762	26.4378
7	368	689.874	25.3519
7	369	690.8	20.5952
7	370	692.146	25.2822
7	371	686.721	25.0419
7	372	688.862	25.4218
7	373	697.946	23.0289
7	374	693.525	26.6249
7	375	687.725	25.3125
7	376	689.861	26.4567
7	377	687.865	23.5421
7	378	689.857	26.6499
7	379	687.725	24.7914
7	380	687.525	25.4066
7	381	686.055	25.338
7	382	689.98	24.1334
7	383	669.333	12.8582
7	384	688.886	26.0632
7	385	686.978	24.8786
7	386	689.525	27.1482
7	387	689.127	27.5809
7	388	688.461	24.9373
7	389	687.624	25.425
7	390	690.815	21.1105
7	391	696.411	24.8448
7	392	689.483	24.9346
7	393	697.8	25.5812
7	394	689.497	25.5641
7	395	696.062	29.254
7	396	686.699	28.3479
7	397	696.167	27.1358
7	398	677.5	15.8787
7	399	685.213	26.0435
7	400	690.234	26.503
7	401	689.2	22.6371
7	402	691.172	23.9763
7	403	688.132	25.1564
7	404	689.343	26.3128
7	405	695.973	26.0208
7	406	687.792	26.3032
7	407	687.547	25.2393
7	408	689.882	24.7485
7	409	691.15	32.0924
7	410	688.378	25.2838
7	411	687.546	25.1176
7	412	689.418	24.5167
7	413	686.563	26.5481
7	414	677.34	21.3402
7	415	676.889	15.4308
7	416	691.545	25.6055
7	417	686.267	24.48
7	418	686.977	24.3413
7	419	685.981	25.0373
7	420	688.692	25.119
7	421	689.252	25.3382
7	422	683.689	24.4074
7	423	689.849	20.994
7	424	686.875	24.6028
7	425	693	21.7032
7	426	684.718	22.8103
7	427	688.786	30.695
7	428	685.761	25.28
7	429	697.28	25.4959
7	430	694.147	27.144
7	431	685.886	25.4152
7	432	689.845	25.7161
7	433	682.182	20.5768
7	434	698.53	26.0958
7	435	686.997	24.7797
7	436	687.141	24.2237
7	437	699.763	29.8405
7	438	693.34	28.3776
7	439	684.698	24.2361
7	440	691.12	25.7957
7	441	696.724	27.8695
7	442	684.275	24.7683
7	443	687.361	24.8336
7	444	695.741	21.0251
7	445	687.197	24.9378
7	446	687	19.5243
7	447	676.375	20.8322
7	448	691.83	26.3842
7	449	685.042	24.0099
7	450	687.562	25.2611
7	451	683.86	23.7289
7	452	689.551	25.4291
7	453	686.972	24.9016
7	454	689.596	20.9156
7	455	692.038	26.578
7	456	687.248	24.386
7	457	691.135	21.5898
7	458	687.631	24.4151
7	459	699.667	26.8561
7	460	685.46	25.7906
7	461	685.731	22.7624
7	462	678.304	21.0312
7	463	686.06	25.3887
7	464	689.796	25.4879
7	465	690.914	24.1775
7	466	688.732	26.965
7	467	684.977	23.9136
7	468	686.105	23.791
7	469	695.724	25.9572
7	470	684.714	23.6414
7	471	686.591	25.9562
7	472	690.186	25.265
7	473	686.214	33.0924
7	474	684.354	22.2768
7	475	687.357	24.9035
7	476	689.452	24.6695
7	477	691.811	26.6181
7	478	691.045	22.8796
7	479	655.5	0.707107
7	480	688.214	24.8146
7	481	685.739	23.5717
7	482	688.708	23.8628
7	483	686.34	18.3243
7	484	688.43	25.1558
7	485	686.24	23.8417
7	486	693.098	18.0206
7	487	696.081	22.2178
7	488	687.622	24.3218
7	489	683.037	18.9564
7	490	688.543	26.1079
7	491	693.5	24.0569
7	492	685.075	25.1992
7	493	692.545	28.738
7	494	692.882	26.8372
7	495	684.93	25.6936
7	496	688.261	25.1302
7	497	689.562	24.9295
7	498	690.815	25.88
7	499	685.61	25.3247
7	500	687.474	24.5204
7	501	687.733	24.2927
7	502	694.729	25.4096
7	503	684.395	25.66
7	504	688.351	24.5375
7	505	696.067	25.544
7	506	683.21	21.1289
7	507	685.325	24.1564
7	508	682.779	21.6367
7	509	687.855	25.1454
7	510	691.733	27.7289
7	511	670.167	13.8912
7	512	686.76	24.4831
7	513	684.269	23.762
7	514	695.652	28.2338
7	515	682.211	23.0055
7	516	685.252	24.4921
7	517	686.596	24.3469
7	518	692.6	27.0792
7	519	689.179	22.2412
7	520	688.23	24.7933
7	521	690.821	22.9896
7	522	682.45	23.7842
7	523	685.636	24.4265
7	524	685.036	26.0786
7	525	692.333	30.0705
7	526	673.8	18.1852
7	527	684.437	24.4731
7	528	687.467	25.0863
7	529	687.25	21.4366
7	530	692.04	26.7536
7	531	685.489	25.7915
7	532	686.419	23.0272
7	533	693.842	20.7077
7	534	690.074	25.3279
7	535	683.857	24.4474
7	536	686.884	23.5084
7	537	694.75	26.5569
7	538	687.677	22.5056
7	539	685.644	29.1397
7	540	685.231	20.3851
7	541	683.418	24.0832
7	542	682.357	21.7549
7	543	664	13.1909
7	544	685.43	23.7215
7	545	684.292	23.6257
7	546	700.727	23.6848
7	547	686.522	19.856
7	548	688.101	24.1811
7	549	684.367	24.4908
7	550	688.533	20.248
7	551	686.886	20.5094
7	552	686.056	25.3638
7	553	688.48	22.1663
7	554	687.723	25.8925
7	555	697.286	29.2216
7	556	684.313	23.8952
7	557	683.462	30.473
7	558	685.647	22.2147
7	559	682.143	24.2765
7	560	685.634	24.7429
7	561	684.13	23.6879
7	562	687.952	25.3771
7	563	683.433	24.2223
7	564	685.387	22.3414
7	565	699.632	27.911
7	566	684.2	21.6288
7	567	681.224	22.5856
7	568	688.227	23.9415
7	569	692.625	24.4755
7	570	683.62	26.3229
7	571	683.772	23.5021
7	572	684.667	21.7445
7	573	683.621	23.9419
7	574	676.947	21.2641
7	575	657	NA
7	576	685.547	23.4795
7	577	682.912	22.1538
7	578	696.188	22.0402
7	579	687.167	23.8932
7	580	686.147	24.284
7	581	681.703	22.6072
7	582	683.84	21.4567
7	583	696.067	25.424
7	584	684.551	24.6124
7	585	679.476	19.4129
7	586	687.663	22.6383
7	587	699.857	16.8169
7	588	683.097	23.9306
7	589	686.5	20.0599
7	590	686.9	26.0275
7	591	684.098	23.4428
7	592	686.412	24.3594
7	593	691.533	23.9817
7	594	680.72	21.9908
7	595	681.546	23.2942
7	596	688.254	23.8211
7	597	681.588	18.5979
7	598	697.355	31.1433
7	599	682.807	22.6384
7	600	686.83	23.1028
7	601	686.5	27.4601
7	602	687.607	25.4462
7	603	681.653	22.1516
7	604	685.257	21.627
7	605	683.64	26.2584
7	606	690.929	25.9777
7	607	671.5	24.7487
7	608	686.514	23.5583
7	609	683.641	25.1361
7	610	690.296	24.8315
7	611	688.522	23.8249
7	612	682.717	23.4671
7	613	681.137	21.7351
7	614	684.571	17.0867
7	615	690.893	21.4999
7	616	687.965	24.2621
7	617	698.118	24.8115
7	618	682.896	21.7894
7	619	696.75	35.6406
7	620	681.346	22.2232
7	621	682.895	20.7415
7	622	686.857	27.3644
7	623	681.195	21.8129
7	624	684.743	23.6573
7	625	687.56	19.3801
7	626	700.192	28.1432
7	627	682.837	23.0143
7	628	683.713	20.8993
7	629	697.917	21.3519
7	630	683.043	21.6721
7	631	683.458	24.4594
7	632	685.305	22.8484
7	633	684.571	20.2308
7	634	695	26.3182
7	635	681.72	21.0821
7	636	681.643	20.3644
7	637	684.465	25.7283
7	638	693.133	34.5168
7	639	683	NA
7	640	687.106	25.8532
7	641	680.271	23.3105
7	642	683.3	24.7344
7	643	692.15	24.4998
7	644	687.021	23.7101
7	645	683.882	25.0215
7	646	689.75	27.0355
7	647	691.536	26.3361
7	648	685.178	24.9485
7	649	694.444	28.5005
7	650	685.242	22.0497
7	651	692.6	29.7708
7	652	679.178	21.5392
7	653	672.111	16.1744
7	654	700	12.1381
7	655	680.493	23.2447
7	656	682.531	22.6836
7	657	687.714	22.1201
7	658	695.226	23.3134
7	659	681.288	22.6456
7	660	684.596	23.2305
7	661	691.8	22.753
7	662	688	22.2486
7	663	680.392	22.296
7	664	685.596	22.5346
7	665	675.2	24.7225
7	666	683.81	19.8686
7	667	679.622	20.3468
7	668	689.8	20.8093
7	669	685.146	23.4942
7	670	689.375	26.3815
7	671	670	8.48528
7	672	686.199	21.8797
7	673	682.101	22.2881
7	674	697.5	27.407
7	675	704	77.3175
7	676	687.511	24.7751
7	677	683.017	20.9426
7	678	688.333	29.7366
7	679	691.462	17.6003
7	680	684.274	21.0488
7	681	684.375	13.5112
7	682	685.75	37.5888
7	683	687	28.2843
7	684	677.673	21.8326
7	685	677	21.2132
7	686	688	12.2882
7	687	680.533	17.586
7	688	686.168	22.7336
7	689	718	18.3848
7	690	704.875	47.3116
7	691	679.371	20.0092
7	692	688.891	24.0752
7	693	699	10.0995
7	694	697.7	20.8809
7	695	678.875	22.1959
7	696	688.07	24.049
7	698	692.6	38.8507
7	699	681.143	23.9923
7	700	712.5	10.6066
7	701	672.923	19.3927
7	702	658	NA
7	704	684.41	20.3604
7	705	680.2	19.6806
7	706	701	14.1421
7	707	694	NA
7	708	690.324	25.6654
7	709	680.81	23.5236
7	711	687.5	33.234
7	712	685	21.9399
7	713	685.5	30.4056
7	714	679	NA
7	716	678.636	20.6779
7	719	674.857	15.2362
7	720	687.879	28.2519
7	721	713	NA
7	722	694	35.3553
7	723	671.167	16.4002
7	724	689.571	25.0656
7	725	675.5	6.36396
7	726	665	NA
7	727	678.5	14.1118
7	728	681.4	17.695
7	731	673.333	24.9065
7	736	693.571	30.0492
7	737	673	19.799
7	740	682.6	32.5622
7	744	725	33.9411
7	748	722	NA
7	749	712	NA
7	752	672.75	7.932
7	763	683	NA
7	765	666	NA
7	784	665	NA
8	7	796.15	35.6256
8	8	798.673	26.3538
8	9	776.625	22.8926
8	10	799.074	26.0688
8	11	773.273	23.6774
8	12	795.561	25.2876
8	13	811.963	24.2907
8	14	776.8	24.0354
8	15	799.32	27.6202
8	16	799.831	27.5953
8	17	786.522	20.2571
8	18	796.333	31.8341
8	19	795.503	23.8077
8	20	798.582	25.639
8	21	774.5	19.2637
8	22	785.917	23.6439
8	23	799.803	23.7499
8	24	799.098	23.5269
8	25	807.444	22.8698
8	26	802.283	21.5882
8	27	796.261	24.1398
8	28	785.485	23.6592
8	29	801.498	25.448
8	30	789.238	28.3583
8	31	771.667	13.9236
8	32	801.133	25.1988
8	33	799.793	23.3691
8	34	779.929	19.4326
8	35	804.929	25.1322
8	36	796.837	25.8386
8	37	798.944	24.3935
8	38	774.25	21.3131
8	39	781.741	27.4459
8	40	801.314	24.3313
8	41	801.444	22.3389
8	42	802.277	26.8719
8	43	809.538	31.6613
8	44	800.705	25.7698
8	45	799.455	26.6809
8	46	762.5	5.12835
8	47	801.718	24.5575
8	48	799.883	26.0656
8	49	778.105	15.3402
8	50	804.412	25.0576
8	51	799.43	25.2687
8	52	798.7	24.9806
8	53	775.5	24.2361
8	54	794.286	29.7463
8	55	800.418	24.549
8	56	800.311	23.6632
8	57	800.583	30.9265
8	58	796.617	23.6699
8	59	798.377	22.1817
8	60	777.308	20.9737
8	61	806.926	24.4247
8	62	780.25	24.0383
8	63	777.5	28.9914
8	64	798.584	25.0397
8	65	799.026	24.0166
8	66	793.4	29.3055
8	67	785.914	27.1232
8	68	797.07	23.5132
8	69	800.812	25.3036
8	70	768.333	12.3558
8	71	790.714	27.0927
8	72	801.744	24.7336
8	73	783.333	30.541
8	74	804.211	22.8731
8	75	799	27.2672
8	76	801.596	24.907
8	77	804.929	23.5027
8	78	783.4	23.2675
8	79	802.342	25.478
8	80	797.909	24.5889
8	81	778.75	9.56438
8	82	788.909	26.8007
8	83	799	25.0538
8	84	798.403	23.596
8	85	773	26.0555
8	86	787.5	28.3632
8	87	803.316	24.816
8	88	798.002	23.7967
8	89	777.667	24.5425
8	90	792.983	24.1692
8	91	797.744	22.8937
8	92	772.571	22.3046
8	93	802.11	23.9198
8	94	785.692	29.1072
8	95	783.333	36.2261
8	96	797.755	23.5107
8	97	798.386	24.0471
8	98	789.5	24.2358
8	99	789.176	29.4496
8	100	797.63	23.7605
8	101	798.98	24.3073
8	102	764.5	15.0665
8	103	785.688	24.5946
8	104	798.544	23.6741
8	105	778.944	16.4834
8	106	801.117	22.1815
8	107	809.312	20.122
8	108	800.746	23.9455
8	109	815.375	28.1574
8	110	776	16.7033
8	111	799.523	23.4117
8	112	797.002	24.3061
8	113	780.882	20.1925
8	114	793.192	28.205
8	115	798.21	22.8248
8	116	796.789	22.8266
8	117	780.25	22.1601
8	118	781.406	21.7254
8	119	801.456	24.2053
8	120	799.027	23.1902
8	121	772	NA
8	122	797.933	22.6902
8	123	798.677	24.1219
8	124	781.417	27.4175
8	125	800.759	22.1736
8	126	791.722	29.2892
8	128	796.408	23.0835
8	129	797.317	22.9891
8	130	785.154	24.9266
8	131	800	36.476
8	132	798.804	23.752
8	133	800.266	23.4558
8	134	771.286	20.8544
8	135	791.625	35.3753
8	136	797.364	24.1143
8	137	790.5	17.096
8	138	799.548	27.3708
8	139	803.857	22.8131
8	140	800.012	23.5435
8	141	791.6	34.0705
8	142	783	NA
8	143	800.284	23.9036
8	144	794.639	23.767
8	145	790	29.6086
8	146	794.091	24.5277
8	147	796.248	24.3063
8	148	796.025	23.3473
8	149	788	35.0927
8	150	793.273	23.4695
8	151	799.62	24.1522
8	152	796.823	25.3159
8	154	795.567	23.4199
8	155	797.426	24.2407
8	156	773.714	13.4996
8	157	800.02	23.8278
8	158	800	22.16
8	160	794.517	22.799
8	161	794.927	22.7625
8	162	785.308	28.6674
8	163	793	24.1134
8	164	798.099	24.0952
8	165	796.352	20.4711
8	166	775	31.1127
8	167	787.5	26.096
8	168	795.86	23.595
8	169	791.455	21.3043
8	170	795.277	21.249
8	171	799.8	33.9058
8	172	800.017	21.8068
8	174	779.4	22.4789
8	175	795.33	18.4707
8	176	795.421	22.8477
8	177	758	NA
8	178	796.792	24.5037
8	179	797.623	21.7929
8	180	796.838	24.8889
8	181	767	8.66025
8	182	786.2	21.0177
8	183	798.382	23.8407
8	184	797.755	26.6365
8	185	768	NA
8	186	794.157	18.1355
8	187	795.95	23.103
8	188	776.071	19.6409
8	189	798.561	24.1317
8	190	799.821	31.228
8	192	796.29	24.2093
8	193	795.919	23.616
8	194	790.773	28.5456
8	195	773.4	11.4368
8	196	800.129	25.0998
8	197	799.163	23.8676
8	198	773	16.5227
8	199	779.75	32.3355
8	200	795.534	23.2402
8	201	812	69.1375
8	202	796.621	22.3791
8	203	800.429	27.7065
8	204	799.162	22.6744
8	205	761	NA
8	206	777	26.1916
8	207	797.911	23.2118
8	208	797.422	22.8697
8	209	790	11.3137
8	210	794.357	21.5928
8	211	799.979	24.7413
8	212	797.686	25.2449
8	213	779.625	17.792
8	214	785.538	21.3331
8	215	799.471	23.3691
8	216	798.592	25.5655
8	217	762	NA
8	218	790.821	21.8242
8	219	799.302	27.0514
8	220	777.5	25.3009
8	221	798.144	22.3818
8	222	801.107	21.7176
8	224	797.564	23.8005
8	225	797.436	21.2781
8	226	800.857	70.3987
8	227	779.4	23.6812
8	228	797.139	24.1679
8	229	796.337	21.9414
8	230	777.857	28.4337
8	231	779.714	16.7503
8	232	794.912	22.9466
8	233	787.667	21.1589
8	234	800.574	29.7273
8	235	814.75	28.0199
8	236	799.517	23.975
8	237	797	1.41421
8	238	782.833	17.7473
8	239	795.284	22.0115
8	240	796.744	25.6482
8	241	772	29.6985
8	242	802.053	28.3323
8	243	799.398	22.4638
8	244	800.327	25.4863
8	245	766.5	11.8462
8	246	793.167	24.8004
8	247	802.154	25.6046
8	248	794.714	21.7653
8	249	778.333	13.6504
8	250	792.373	24.0616
8	251	799.737	23.6903
8	252	773	14
8	253	800.119	22.0348
8	254	796.611	29.1429
8	255	810	NA
8	256	795.518	23.4059
8	257	796.643	24.6478
8	258	783	29.8077
8	259	784.636	20.1558
8	260	797.563	22.5601
8	261	799.013	21.6116
8	262	780	16.9706
8	263	767.333	9.64711
8	264	795.978	24.815
8	265	781.8	27.3
8	266	794.468	23.6053
8	267	822.2	19.6647
8	268	800.694	22.6122
8	269	794	NA
8	270	788.667	50.7182
8	271	796.008	23.0442
8	272	798.096	24.609
8	273	753	NA
8	274	790.4	27.5365
8	275	796.674	23.3305
8	276	801.055	23.5336
8	277	754	2.82843
8	278	776.182	32.5294
8	279	800.536	22.2174
8	280	794.787	23.8137
8	281	806	24.0416
8	282	800.411	25.0453
8	283	799.733	23.3028
8	284	763.857	6.61888
8	285	796.708	21.5318
8	286	795.75	26.4339
8	287	801.333	5.68624
8	288	798.611	24.4611
8	289	793.794	21.3979
8	290	791.833	31.6633
8	291	782	27.2152
8	292	799.736	23.9502
8	293	796.866	26.3519
8	295	783.8	28.4113
8	296	795.228	23.0741
8	297	787	20.6942
8	298	800.176	24.991
8	299	806.167	36.94
8	300	801.619	24.4026
8	301	804	NA
8	302	769.5	3.51188
8	303	797.295	24.4489
8	304	796.409	22.3993
8	305	775.5	20.5061
8	306	798.824	25.9332
8	307	798.389	24.0678
8	308	793.761	22.2256
8	309	769.5	16.9086
8	310	763	10.8012
8	311	796.498	24.1672
8	312	795.387	22.6654
8	313	766	NA
8	314	797.273	22.6812
8	315	798.045	23.6433
8	316	780.214	25.7329
8	317	799.459	20.5812
8	318	789.5	23.5662
8	320	798.383	22.4957
8	321	800.029	23.913
8	322	792.692	21.6886
8	323	776.286	12.352
8	324	801.652	25.2642
8	325	796.257	22.0752
8	326	783.4	20.8923
8	327	755.667	5.68624
8	328	795.69	22.6374
8	329	787.778	11.2448
8	330	800.833	26.8836
8	331	792.571	23.8108
8	332	801.619	24.0392
8	333	759	NA
8	334	778	16.9352
8	335	798.24	22.5795
8	336	796.03	23.5473
8	337	778	NA
8	338	783.286	27.8966
8	339	797.205	22.3497
8	340	798.401	23.6095
8	341	786.5	50.2046
8	342	778.667	19.8967
8	343	798.646	23.5082
8	344	795.846	24.4441
8	345	778	NA
8	346	799.269	23.6145
8	347	798.418	23.944
8	348	761.25	4.85627
8	349	802.558	21.8884
8	350	801.333	24.9132
8	352	797.062	22.6837
8	353	797.443	23.1993
8	354	795.765	25.8373
8	355	772.2	12.9112
8	356	799.934	23.881
8	357	797.496	22.632
8	358	813.5	6.36396
8	359	766.25	17.1148
8	360	797.478	26.3435
8	361	786.308	24.0741
8	362	793.667	25.6561
8	363	806	33.3467
8	364	799.964	23.1068
8	365	782.5	2.12132
8	366	789	43.2088
8	367	803.367	24.0156
8	368	796.091	23.4901
8	370	792.769	27.2248
8	371	801.759	24.6309
8	372	799.409	23.382
8	373	775	8.48528
8	374	777	19.2614
8	375	798.647	21.1803
8	376	796.856	23.9474
8	377	751	NA
8	378	798.286	24.1802
8	379	800.072	28.4421
8	380	756.2	6.76018
8	381	800.957	22.1362
8	382	778.833	21.5737
8	384	798.11	23.9539
8	385	794.978	22.4749
8	386	802.25	23.1404
8	387	782	4.24264
8	388	799.039	27.2144
8	389	800.761	22.3442
8	390	765.25	6.44851
8	391	805.667	28.589
8	392	801.435	24.4111
8	393	782	26.7795
8	394	802.628	23.0703
8	395	784	15.4272
8	396	797.711	23.2162
8	397	774.5	13.435
8	398	793.4	31.7931
8	399	800.816	26.5163
8	400	795.148	22.2412
8	401	782.5	44.5477
8	402	785.583	29.5618
8	403	796.441	21.4762
8	404	797.327	23.5669
8	405	769	NA
8	406	778	23.6079
8	407	797.331	23.3354
8	408	796.655	22.5778
8	409	805	NA
8	410	797.962	25.299
8	411	799.747	21.6758
8	412	777.8	14.7207
8	413	801.45	20.3756
8	414	790	24.0763
8	416	795.169	23.7573
8	417	798.195	24.0457
8	418	798.667	27.9195
8	419	780.25	5.90903
8	420	800.117	24.1222
8	421	800.89	22.2258
8	422	757	NA
8	423	784.667	6.02771
8	424	798.143	22.4665
8	425	775.5	21.3151
8	426	798.158	20.0617
8	427	795	18.5203
8	428	799.958	23.9884
8	429	801	NA
8	431	797.945	21.9329
8	432	795.544	23.16
8	433	780	15.5563
8	434	802.067	32.1636
8	435	799.542	23.1
8	436	798.37	22.1244
8	437	791	NA
8	438	779.5	10.4083
8	439	795.829	23.1537
8	440	796.144	21.9188
8	441	798	NA
8	442	792.929	24.2807
8	443	799.831	23.0225
8	444	762.667	18.4752
8	445	795.804	20.0794
8	446	794.818	18.0545
8	448	796.132	23.2892
8	449	797.576	21.5819
8	450	778.429	21.6322
8	451	788.5	31.8198
8	452	799.913	22.6511
8	453	797.817	22.9735
8	454	754	NA
8	455	777	21.6564
8	456	797.907	22.4692
8	457	791.889	27.2286
8	458	788.905	19.0182
8	459	783.5	16.2635
8	460	797.561	21.1553
8	462	774	NA
8	463	802.262	18.7287
8	464	795.801	21.7532
8	466	790.538	30.2809
8	467	793.465	19.2911
8	468	794.595	20.623
8	469	778.75	17.0563
8	470	775.8	18.86
8	471	797.079	20.8196
8	472	795.604	21.1573
8	473	766	1.41421
8	474	804.846	25.1722
8	475	796.463	22.543
8	476	780.5	28.3137
8	477	800.236	20.9602
8	478	800.571	34.5681
8	480	797.067	22.4706
8	481	797.023	23.3631
8	482	806	NA
8	483	770	NA
8	484	798.605	22.8204
8	485	798.283	20.427
8	486	760	NA
8	487	786	1.73205
8	488	799.49	25.881
8	489	794.143	24.6673
8	490	804.125	25.2936
8	491	793.667	27.9333
8	492	798.119	19.8521
8	494	769	NA
8	495	801.222	27.0747
8	496	797.472	26.5078
8	498	789.182	21.1982
8	499	794.493	17.6674
8	500	797.538	20.3291
8	501	784.667	53.9846
8	502	787.556	23.4953
8	503	799.847	23.3811
8	504	796.113	20.7819
8	505	788	NA
8	506	805.053	25.4896
8	507	800.194	23.3804
8	508	792	NA
8	509	790.091	18.1889
8	510	799.857	23.3626
8	512	797.474	21.1603
8	513	793.421	19.5795
8	514	770	23.484
8	515	785	NA
8	516	801.161	23.2993
8	517	799.158	21.2036
8	519	774	9.89949
8	520	798.385	23.5412
8	521	793	11.3137
8	522	807.967	26.0258
8	523	808.714	21.4765
8	524	798.57	24.2695
8	525	772	NA
8	527	800	22.9977
8	528	795.265	20.8442
8	530	795.25	25.8039
8	531	800.712	22.5847
8	532	795.4	21.946
8	534	775.111	18.0447
8	535	796.346	20.9821
8	536	796.007	23.3225
8	537	804	NA
8	538	800.824	19.7207
8	539	792.911	22.4494
8	540	779.25	20.106
8	541	794.458	14.1942
8	542	762	12.9357
8	543	801	NA
8	544	796.954	22.3169
8	545	795.75	19.5266
8	546	774.4	20.6591
8	547	792	NA
8	548	799.128	22.7832
8	549	797.341	24.5247
8	550	778	NA
8	551	770.333	16.2583
8	552	794.506	19.989
8	553	771.75	13.8894
8	554	792.905	22.4208
8	555	776	31.1127
8	556	801.177	23.0168
8	558	767	NA
8	559	798.762	23.7716
8	560	798.275	21.8102
8	561	761	NA
8	562	792.833	23.7059
8	563	802.417	24.4343
8	564	797.38	21.6826
8	565	774	5.65685
8	566	782.333	11.7587
8	567	793.94	19.7413
8	568	794.398	20.1017
8	569	766.5	13.435
8	570	806.1	18.1801
8	571	799.275	20.7092
8	572	751.5	0.707107
8	573	794	17.9475
8	574	774.571	16.3387
8	576	797.75	19.9352
8	577	796.366	24.2433
8	578	792.333	25.658
8	579	800	NA
8	580	796.39	24.1738
8	581	790.619	17.2369
8	582	764	NA
8	583	769.333	14.7422
8	584	796.565	22.0511
8	585	798.667	10.0167
8	586	810.8	21.9844
8	587	778.5	23.3345
8	588	795.649	21.6852
8	589	767	NA
8	591	795.375	24.8838
8	592	793.544	20.5098
8	594	795.143	25.9963
8	595	795.627	20.3676
8	596	798.069	21.3902
8	597	765.333	17.6163
8	598	790.778	28.4244
8	599	798.483	21.7587
8	600	796.859	21.2149
8	602	806.9	25.7578
8	603	795.568	19.413
8	604	792	57.9828
8	605	798.04	20.8036
8	606	783	NA
8	608	797.013	23.4823
8	609	792.649	17.5091
8	610	799.889	17.3742
8	611	804	NA
8	612	799.914	22.011
8	613	792.927	17.956
8	614	760	11.3137
8	615	784.4	24.0894
8	616	797.063	20.5394
8	617	791.667	33.546
8	618	827.5	43.7919
8	619	816	23.1373
8	620	802.194	19.9567
8	623	799.938	22.5373
8	624	797.552	20.544
8	626	792.923	22.4702
8	627	797.816	22.1206
8	628	799.525	22.5149
8	630	775.5	13.3292
8	631	796.023	20.7668
8	632	800.382	24.0149
8	634	801.267	19.8942
8	635	795.071	22.6208
8	636	814.5	2.12132
8	637	790.556	16.9197
8	638	803.5	4.94975
8	640	794.951	18.6455
8	641	793.304	20.9011
8	642	766	7.54983
8	643	809	16.5227
8	644	798.091	22.4831
8	645	795.593	17.241
8	647	783.333	34.2685
8	648	798.682	25.1157
8	649	790	NA
8	650	790.833	25.4198
8	651	794	45.7384
8	652	799.288	17.3751
8	655	796.875	24.9367
8	656	797.459	20.0882
8	658	790.778	27.5489
8	659	792.875	17.9067
8	660	795.697	19.8108
8	662	814	NA
8	663	797.565	16.7327
8	664	795.644	21.4541
8	666	800	26.3086
8	667	792.364	17.8621
8	668	792	NA
8	669	795.8	14.5327
8	672	803.614	29.6965
8	673	792.5	18.9962
8	674	791.5	37.4767
8	675	790.5	4.94975
8	676	800.087	21.0927
8	677	796.417	17.6762
8	680	789	18.8646
8	681	774.5	21.9203
8	682	792	30.7354
8	684	806.857	29.4699
8	688	796.4	21.1536
8	690	823.333	30.2379
8	691	801	18.578
8	692	808.833	20.9801
8	694	770.667	11.5902
8	695	791.167	18.0601
8	696	797.923	18.5493
8	698	802	27.076
8	699	782.667	15.9478
8	700	760	NA
8	701	817	NA
8	704	789	16.7407
8	705	801	18.3576
8	708	782.333	16.2891
8	712	816.75	22.7358
8	714	822	NA
8	716	797	NA
8	720	795.333	16.773
8	722	759	NA
8	728	812	19.1572
8	731	764	NA
8	736	802	NA
8	748	798	NA
8	752	788	NA
9	7	887.5	30.5859
9	8	886.033	26.8938
9	9	892.5	24.7487
9	10	892.935	27.1198
9	11	878	NA
9	12	885.772	29.0234
9	13	898.833	38.6441
9	15	885.792	22.4795
9	16	887.842	25.9883
9	17	882.5	38.8909
9	18	895.4	31.9578
9	19	884.601	22.5107
9	20	885.055	25.4039
9	22	873.286	19.7713
9	23	882.86	22.8035
9	24	883.66	24.4561
9	25	883.636	22.7959
9	26	885.611	29.2215
9	27	886.83	21.0867
9	28	896.667	14.2945
9	29	886.64	22.3948
9	30	908.667	21.0206
9	32	884.553	25.5471
9	33	881.966	23.5411
9	34	864.5	10.6066
9	35	881.929	14.3069
9	36	882.277	24.4085
9	37	888.585	27.0815
9	38	900	NA
9	39	890.25	27.5484
9	40	881.954	24.6802
9	41	867	NA
9	42	889.417	26.1133
9	43	874.25	15.5858
9	44	883.071	23.685
9	45	915.571	20.7594
9	47	892.387	25.9245
9	48	880.977	24.6523
9	50	881.5	8.81287
9	51	888.599	24.5774
9	52	886.605	26.4833
9	53	863	NA
9	54	863.667	3.78594
9	55	883.664	23.4703
9	56	885.027	26.0317
9	57	883.25	20.998
9	58	894.706	24.5198
9	59	891.983	23.9399
9	60	901.25	37.4822
9	61	883.129	23.7546
9	62	904.5	20.5386
9	63	893	NA
9	64	888.112	26.0917
9	65	889.84	24.909
9	66	891.111	30.5714
9	67	864.5	0.707107
9	68	884.514	24.7153
9	69	883.67	24.8219
9	71	910.5	27.7909
9	72	888.329	23.5779
9	73	935	NA
9	74	881.488	23.6549
9	75	905	38.4513
9	76	888.46	25.4409
9	77	886.167	23.3387
9	79	889.774	26.3665
9	80	883.993	23.3524
9	82	887.778	30.6014
9	83	884.604	24.7092
9	84	885.273	26.3287
9	86	869	NA
9	87	879.505	22.3195
9	88	883.152	20.5217
9	90	886.455	27.6599
9	91	881.104	19.6839
9	92	918	NA
9	93	880.881	22.2285
9	94	903.727	27.6481
9	95	921	NA
9	96	885.667	25.4626
9	97	890.232	26.5033
9	98	877	11.3578
9	99	875	27.4044
9	100	882.27	24.5161
9	101	882.959	19.496
9	103	905.5	35.6885
9	104	884.343	23.0621
9	105	912.333	28.2194
9	106	891.091	22.8697
9	107	876.571	19.6117
9	108	887.228	23.21
9	109	889	0
9	111	887.653	22.1825
9	112	885.2	25.2072
9	114	904.125	25.4415
9	115	882.985	20.3136
9	116	886.984	27.0957
9	119	879.862	21.0233
9	120	882.274	25.3064
9	122	874	17.7271
9	123	885.25	23.7044
9	125	885.155	22.6815
9	128	886.211	24.5259
9	129	885.023	24.4321
9	130	890.286	37.5531
9	132	886.892	23.4244
9	133	884.632	22.8172
9	135	911.5	27.7327
9	136	885.299	24.6721
9	137	903	NA
9	138	886.333	27.7467
9	139	889.25	19.0153
9	140	888.208	25.8806
9	142	889	NA
9	143	887.8	23.7281
9	144	882.455	25.798
9	146	884.25	28.5294
9	147	883	24.3242
9	148	886.094	25.0916
9	150	854	NA
9	151	885.5	24.0734
9	152	883.863	24.8536
9	154	874.833	23.8865
9	155	879.5	25.3063
9	156	949	NA
9	157	881.478	19.7964
9	158	890.5	41.7193
9	160	891.661	23.9897
9	161	889.1	24.935
9	162	878	9.4163
9	164	886.171	23.6262
9	165	887.981	23.9431
9	167	903.4	10.6911
9	168	885.769	21.6495
9	169	894.6	12.502
9	170	883.067	18.7139
9	171	885.333	14.5717
9	172	889.608	24.9962
9	175	895.425	28.1852
9	176	886.809	23.8241
9	178	931.75	17.3469
9	179	888.356	22.6607
9	180	886.711	25.3055
9	182	867	NA
9	183	886.545	24.2444
9	184	884.099	24.233
9	186	894	30.4959
9	187	894	22.8897
9	189	880.222	19.5179
9	190	886.333	25.2481
9	192	891.051	26.9181
9	193	887.116	27.362
9	194	900	10.1489
9	196	885.059	24.0664
9	197	882.107	22.0352
9	199	905	NA
9	200	885.875	25.7455
9	201	860	NA
9	202	896	25.6193
9	203	889.167	25.7248
9	204	884.184	25.2326
9	207	893.667	30.1728
9	208	885.438	22.8269
9	210	908	35.6183
9	211	888.979	26.6854
9	212	887.918	25.7308
9	215	884.065	20.1127
9	216	886.259	25.4086
9	218	859.333	4.04145
9	219	891.647	24.3384
9	221	884.733	30.7233
9	222	903.857	18.9247
9	224	891.186	26.2462
9	225	890.673	26.6774
9	226	869	9.89949
9	228	893.34	28.5712
9	229	887.667	28.2032
9	232	885.591	25.063
9	233	863	11.4455
9	234	901.6	34.3341
9	235	878.111	21.6012
9	236	889.69	21.303
9	238	867	NA
9	239	891.481	24.9667
9	240	888.766	24.0793
9	242	896.8	23.5733
9	243	887.036	28.6867
9	244	891.776	26.7228
9	246	852	NA
9	247	886.923	28.5486
9	248	886	24.3932
9	250	887	35.8497
9	251	891.034	23.4954
9	253	879.667	16.7883
9	254	891.167	35.0281
9	256	891.558	27.8513
9	257	883.696	21.9007
9	258	934	NA
9	260	889.885	27.4231
9	261	896.647	29.4463
9	263	930.333	17.5024
9	264	890.873	26.7277
9	265	876	15.5563
9	266	896.286	30.4768
9	267	862	NA
9	268	887.315	24.9439
9	271	890.217	22.0453
9	272	888.235	23.507
9	274	900.8	26.8552
9	275	890.946	23.9234
9	276	892.222	24.3997
9	279	902.579	29.342
9	280	885.241	20.3077
9	282	875.714	14.3496
9	283	883.571	24.1404
9	285	876.389	17.4091
9	286	897.4	14.639
9	288	888.241	27.7518
9	289	891.968	24.6367
9	290	873	NA
9	292	892.481	24.2968
9	293	895.545	29.428
9	295	879	18.3848
9	296	889.607	23.8111
9	298	894.667	23.8531
9	299	882.333	38.553
9	300	886.271	25.1038
9	303	893.375	30.0519
9	304	880.831	22.1682
9	306	877.75	20.8866
9	307	879.591	18.6488
9	308	894.939	28.2337
9	310	936	NA
9	311	891.588	24.6049
9	312	889.2	25.3739
9	314	875.818	18.9516
9	315	892.941	25.3783
9	317	891.25	24.0164
9	318	885	4.24264
9	320	896.951	26.9842
9	321	886.545	23.1264
9	322	919.5	36.0624
9	324	889.745	21.4652
9	325	890.683	22.9439
9	327	924	35.3553
9	328	897.471	28.4043
9	330	887.833	23.3959
9	331	880	NA
9	332	889	23.3324
9	335	896.095	20.7362
9	336	892.094	25.5807
9	338	885.375	27.071
9	339	887.211	23.3276
9	340	886.615	25.3076
9	343	895.25	28.4253
9	344	887.98	25.5652
9	346	863.8	10.849
9	347	887.167	24.3572
9	349	881.083	19.8973
9	352	891.797	27.3907
9	353	895.731	23.9576
9	354	862.5	9.19239
9	356	889.446	24.0869
9	357	893.067	22.7747
9	360	889.081	25.501
9	362	882	18.4468
9	363	860	NA
9	364	893.139	19.1119
9	365	915	NA
9	366	890	NA
9	367	898.389	24.3893
9	368	886.735	23.9955
9	370	874.5	10.6066
9	371	882.65	21.8326
9	372	892.639	23.3729
9	375	890.238	25.7369
9	376	893.043	27.2071
9	377	880	NA
9	378	880.375	31.0711
9	379	910.5	23.275
9	381	884.571	26.1716
9	384	894.472	27.1796
9	385	884.067	14.0736
9	386	929	NA
9	388	889.189	24.7216
9	389	893.227	29.8615
9	392	891.714	25.5821
9	393	897	NA
9	394	897.778	27.4535
9	395	890.5	6.36396
9	396	887.833	25.9819
9	399	911.333	29.0975
9	400	888.955	22.0991
9	402	868	22.6274
9	403	881.182	19.4464
9	404	884.094	21.8475
9	407	890.364	17.7537
9	408	884.412	24.5918
9	410	869.5	14.8492
9	411	884.278	23.2981
9	413	874.667	14.1598
9	414	852	NA
9	416	892.466	24.816
9	417	881.8	16.5063
9	418	871.5	28.9914
9	420	890.026	21.7075
9	421	893.067	25.0727
9	423	915	NA
9	424	886.667	28.0535
9	426	886.667	14.9778
9	427	880	24.0416
9	428	887.97	24.82
9	430	861	NA
9	431	913	28.4956
9	432	882	20.445
9	435	877	21.2132
9	436	897.75	29.722
9	439	889.565	29.3673
9	440	892.96	27.7631
9	442	858	9.89949
9	443	893.846	16.6375
9	445	885.444	27.1897
9	446	865	NA
9	448	884.012	23.4568
9	449	898.385	18.4641
9	450	873	NA
9	452	889.8	25.8836
9	453	882.818	18.2692
9	455	904	NA
9	456	888.259	27.4375
9	457	854	NA
9	458	880.375	23.47
9	459	884	28.2843
9	460	879.241	24.5948
9	463	890.533	24.0709
9	464	890.442	24.5368
9	466	937	NA
9	467	882.4	16.1338
9	468	886.25	19.0398
9	471	890.952	25.6583
9	472	899.944	25.0131
9	474	877	NA
9	475	886.429	14.5323
9	477	877	20.8447
9	480	891.595	21.803
9	481	868.875	14.6525
9	483	868	NA
9	484	887.68	27.1811
9	485	898.7	23.8889
9	487	916	NA
9	488	884.87	18.9264
9	490	896	35.6371
9	491	873.333	10.2632
9	492	893.13	33.3362
9	495	899.625	13.9892
9	496	891.529	26.6881
9	499	901.25	31.6689
9	500	884.267	23.9567
9	503	887.6	18.0942
9	504	884.81	22.7983
9	505	918	NA
9	506	864	NA
9	507	887.182	17.2906
9	509	917.5	7.77817
9	512	890.229	21.9848
9	513	903.5	64.3467
9	516	888.211	30.0732
9	517	890.077	24.7503
9	520	892.467	25.3006
9	521	898.5	21.9203
9	522	883	14.1774
9	523	883.333	28.006
9	524	890.316	15.2645
9	527	887.8	20.969
9	528	891.522	27.7454
9	531	886.125	24.6254
9	532	886.3	16.6831
9	535	896.3	21.8177
9	536	891.444	23.5827
9	538	878.667	18.0093
9	539	900.7	21.0188
9	544	893.8	25.6799
9	545	888.8	11.5195
9	548	900.562	23.1112
9	549	871.5	10.7548
9	552	895.133	30.1446
9	555	859	NA
9	556	876.833	15.9991
9	559	896.714	28.7328
9	560	885.852	19.4238
9	562	854.5	2.12132
9	563	889	12.775
9	564	885.476	20.9323
9	565	896	NA
9	567	889.533	25.8674
9	568	889.357	18.2782
9	570	885.667	32.3027
9	571	883.857	15.4642
9	574	851	NA
9	576	884.636	26.7912
9	577	879.286	21.5617
9	580	888.941	28.3162
9	581	907	NA
9	584	894.375	20.1915
9	587	873	NA
9	588	886.462	23.8454
9	591	900	32.5269
9	592	882.25	30.1765
9	594	889	NA
9	595	892.333	50.7674
9	596	885.333	20.451
9	599	889.667	26.9397
9	600	881.1	21.4655
9	602	896	15.5563
9	603	913.667	29.6704
9	605	911	35.3553
9	608	895.5	16.5736
9	609	913	4.24264
9	610	889	NA
9	612	892.875	14.9134
9	613	890	20.664
9	616	879.286	14.8516
9	618	895.333	8.62168
9	619	888	NA
9	620	869.5	15.7702
9	623	899.143	31.0453
9	624	893.696	25.1964
9	626	894	NA
9	627	872.667	10.5987
9	628	887	31.1127
9	631	894.25	35.1319
9	632	879.778	14.9564
9	635	911	NA
9	640	910.609	26.1182
9	641	871	NA
9	644	911.333	23.7978
9	647	913	NA
9	648	898.667	15.7184
9	650	873	22.6274
9	652	903.875	19.1269
9	655	895	22.6274
9	656	876.625	18.9506
9	659	880	NA
9	660	916	45.5302
9	663	895	5.19615
9	664	870	22.6053
9	666	911	5.65685
9	667	874	NA
9	672	890.444	31.3573
9	674	883	NA
9	676	906.429	23.165
9	677	879	NA
9	680	880	22.7925
9	682	862.5	3.53553
9	684	898	NA
9	688	890	NA
9	695	893	22.6274
9	696	917	NA
9	700	904	NA
9	701	910	NA
9	704	884	NA
9	705	884	NA
9	720	902.5	26.163
9	784	899	NA
10	7	1005	NA
10	8	985.6	19.6291
10	10	981.333	15.3948
10	12	982.941	21.1526
10	13	1019.75	17.4619
10	15	985.462	24.4936
10	16	978.686	22.4601
10	18	996	9.76388
10	19	979.875	16.1612
10	20	969.643	15.5594
10	23	989.833	15.1947
10	24	973	20.7646
10	25	989.75	10.9962
10	26	997.25	21.8232
10	27	975.333	19.2631
10	28	975.4	13.1833
10	29	977.667	22.0333
10	30	951	NA
10	32	974.583	19.8449
10	33	973.947	18.6234
10	35	1022	NA
10	36	968.5	26.8235
10	37	969.875	21.9899
10	40	977.222	23.8944
10	42	964.333	5.50757
10	44	978.294	14.499
10	45	1015	NA
10	47	969	13.4907
10	48	976.765	17.5838
10	50	998.25	4.64579
10	51	974.933	17.0607
10	52	967.6	7.73305
10	54	976.4	28.5885
10	55	985.75	16.3336
10	56	968	17.9072
10	57	1003	22.1133
10	59	971.333	23.1805
10	60	974.4	16.876
10	61	1002.33	10.504
10	62	985.333	33.5609
10	64	977.182	23.87
10	65	977.786	16.8622
10	68	972.75	29.7027
10	69	980.333	34.477
10	71	992.2	29.0293
10	72	974.833	24.1364
10	73	985.6	31.2138
10	76	988.25	22.0378
10	77	998	56.5685
10	79	978.222	14.149
10	80	976.25	22.3246
10	82	983.25	28.6051
10	83	979.333	19.8051
10	84	960.667	7.57188
10	87	989.636	21.3975
10	88	958.286	7.18132
10	90	986	NA
10	91	973.8	19.7914
10	93	992.5	28.9914
10	94	958	9.89949
10	95	997.5	53.033
10	96	973.833	22.1397
10	97	983.7	24.4543
10	100	990	NA
10	101	972	20.347
10	103	1042	NA
10	104	998.5	20.5061
10	105	964	NA
10	106	987.8	26.0902
10	108	972.25	17.8536
10	111	977.6	17.883
10	112	980.429	27.2694
10	114	979.5	13.7961
10	115	979.444	24.8853
10	116	973.125	26.5623
10	119	992.833	20.8559
10	120	991	19.799
10	123	989.5	13.7376
10	124	980.5	6.36396
10	125	985.25	13.8173
10	126	963	NA
10	128	985.091	22.8712
10	129	989.833	25.9647
10	130	969	1.41421
10	132	985	25.7915
10	133	997.167	27.7014
10	135	991.25	30.3686
10	136	1015	45.2548
10	137	1001	NA
10	140	982.364	20.8148
10	143	983	7.07107
10	144	999	34.7707
10	147	978.4	15.5338
10	148	995.75	36.2066
10	151	985.333	21.9393
10	152	990.5	10.6066
10	155	982	26.8701
10	160	972.444	15.3388
10	161	985.286	22.2764
10	162	993	33.9411
10	164	995.6	18.1328
10	165	980.625	18.2204
10	167	975.5	28.7692
10	168	977	4.24264
10	172	986.375	22.6329
10	175	994	14.2361
10	176	993	13.5499
10	178	976	16.5378
10	179	967.4	9.2358
10	180	981	22.2531
10	183	994.5	20.5061
10	184	1000	43.715
10	185	1044	NA
10	187	981.667	12.897
10	189	969	8.48528
10	190	1003.75	39.9865
10	192	988.909	28.8737
10	193	974.5	20.5345
10	196	980.8	20.4657
10	197	976	18.9473
10	199	979	NA
10	200	981.333	31.0859
10	202	973	14.1421
10	204	988.25	22.3514
10	207	1002.5	13.6991
10	208	978	20.5426
10	211	985.667	21.8693
10	212	984	25.1529
10	215	976.75	18.2825
10	216	980	19.2484
10	219	991.667	12.5033
10	221	999	NA
10	222	981	NA
10	224	984.2	12.1532
10	225	991.818	14.952
10	228	975.333	17.4432
10	229	983.583	26.6917
10	231	1003	29.4109
10	232	997.4	36.2533
10	234	982.333	23.4592
10	236	985.2	13.8456
10	239	995.75	17.7271
10	240	1001.43	15.3607
10	243	968	12.1244
10	244	962	11.5326
10	247	1007.5	21.5174
10	248	961	NA
10	251	993.667	28.6612
10	253	1008.5	37.4767
10	254	978	NA
10	256	987.462	27.3027
10	257	1013	NA
10	260	995.333	10.6927
10	261	999.375	21.0302
10	263	1029	14.7309
10	264	997.167	23.2157
10	268	997	32.4808
10	271	989.5	13.2288
10	272	984.938	19.3614
10	275	993.333	29.5691
10	276	1000.33	8.62168
10	279	986.286	17.4424
10	280	988.2	24.366
10	283	987	28.2843
10	288	996	28.4002
10	289	1012.5	33.234
10	292	990.4	40.6116
10	293	1013.33	31.5013
10	295	1003	37.2111
10	296	996.833	32.8963
10	300	986.875	19.1269
10	304	974.833	19.1146
10	306	989	NA
10	307	994	9.89949
10	308	993.5	38.8909
10	311	992.286	25.6756
10	312	975.6	22.6561
10	315	987	17.3494
10	320	1006	22.4499
10	321	973.5	6.36396
10	324	1001.29	23.4927
10	325	1012.83	23.1293
10	327	1028	11.3137
10	328	1001.67	12.801
10	330	958	NA
10	332	995.2	22.72
10	336	1018.5	4.94975
10	339	983	41.0122
10	340	971	25.4558
10	343	996.667	32.9161
10	344	983.833	29.3831
10	346	1035	NA
10	347	1000	69.2965
10	349	990	NA
10	352	992.1	18.4659
10	353	984.5	23.4764
10	356	992.571	30.517
10	357	971.8	9.36483
10	360	999.25	22.9643
10	362	1026	NA
10	364	1000.25	22.6771
10	367	991.5	34.6482
10	368	979	30.1397
10	372	983.889	25.8237
10	375	991.5	10.6066
10	376	954	NA
10	379	972.667	14.0119
10	381	1017	NA
10	384	990.65	18.1116
10	385	1020.5	27.5772
10	388	984	19.2354
10	389	1003	1.41421
10	392	1040.5	12.0208
10	394	1006.5	60.1041
10	396	971.667	21.8144
10	399	980	12.1655
10	400	990.1	20.3112
10	403	959.333	13.5769
10	404	999	19.6723
10	407	1000	NA
10	408	993.667	23.4592
10	411	981.5	23.3345
10	416	996.2	25.4855
10	420	1016.67	28.1129
10	423	1014.67	29.8385
10	424	995.4	23.2551
10	428	983.667	36.4737
10	431	1028	NA
10	432	966.333	16.6233
10	439	980	NA
10	440	996	12.1244
10	443	982	NA
10	448	992.8	31.8287
10	449	1001.5	6.36396
10	452	981.333	25.658
10	453	995	22.6274
10	456	994.833	31.7579
10	460	973.667	12.3423
10	464	980.667	23.8803
10	467	990	NA
10	468	1033	NA
10	471	983	15.5242
10	472	1007	NA
10	475	1008.33	13.5769
10	480	994.429	17.7469
10	487	951	NA
10	488	984.5	26.4783
10	492	995.667	19.0351
10	496	991.25	20.4185
10	504	996.5	6.36396
10	507	986.5	37.4767
10	512	1001.67	20.4418
10	513	1002	NA
10	516	978	22.286
10	520	968.333	16.4418
10	521	973	NA
10	524	964.5	7.77817
10	528	1018	NA
10	531	981	NA
10	536	989	NA
10	544	988.8	11.4324
10	545	1021	NA
10	548	981.667	10.7858
10	549	962	NA
10	551	985	NA
10	552	1012	29.8161
10	556	970	NA
10	560	970	4.24264
10	564	1022.5	37.4767
10	571	1049	NA
10	576	978	NA
10	580	1010	35.3553
10	584	968.25	12.2031
10	588	1004.5	32.665
10	592	991	8.48528
10	599	997	NA
10	616	984	NA
10	624	1043	8.48528
10	628	968	NA
10	640	977.5	7.77817
10	645	995	NA
10	647	1000	NA
10	648	983	38.1838
10	652	990.667	34.9619
10	656	1012	NA
10	672	1010.5	0.707107
10	676	1011	NA
10	680	995.667	16.0104
10	688	994	NA
10	692	988	NA
10	708	990	NA
10	712	1009	NA
11	8	1095	NA
11	12	1069	NA
11	16	1100	33.9411
11	18	1071	NA
11	24	1075	19.799
11	32	1099	NA
11	48	1053	NA
11	57	1083.5	44.5477
11	65	1051	NA
11	68	1083	NA
11	71	1059	0
11	82	1064	NA
11	95	1056	NA
11	116	1079	NA
11	128	1067	NA
11	130	1105.5	61.5183
11	133	1056	NA
11	140	1073	NA
11	143	1059	NA
11	144	1095	NA
11	152	1100	NA
11	161	1075.5	7.77817
11	165	1098	NA
11	167	1072	NA
11	180	1132	NA
11	196	1069.5	10.6066
11	197	1081.33	26.6896
11	210	1077	NA
11	216	1093	NA
11	219	1099	NA
11	228	1095	NA
11	229	1072	NA
11	231	1065	NA
11	232	1067	NA
11	236	1096	NA
11	247	1108	NA
11	263	1094.67	47.184
11	264	1070	NA
11	268	1076	NA
11	276	1083	22.6274
11	293	1079	7.07107
11	295	1109	NA
11	303	1077	NA
11	304	1085.5	4.94975
11	321	1094	2.82843
11	327	1123	36.7696
11	332	1114	NA
11	359	1066	NA
11	364	1097	NA
11	368	1089	NA
11	376	1107	9.89949
11	384	1113.5	29.6816
11	385	1078	NA
11	391	1149	NA
11	399	1078	NA
11	404	1102.67	17.0392
11	411	1097	NA
11	416	1103.5	19.0919
11	421	1106	NA
11	423	1078.5	24.7487
11	432	1101	NA
11	443	1084	NA
11	460	1123	18.3848
11	464	1109	56.5685
11	468	1086	5.65685
11	475	1100	NA
11	487	1126	NA
11	524	1089	NA
11	528	1092	NA
11	544	1081	NA
11	552	1072	NA
11	553	1122	NA
11	560	1098	NA
11	563	1093	NA
11	576	1093	8.48528
11	584	1106	NA
11	624	1092	NA
11	664	1090	NA
